Cycle,Area(mm^2),PeakDynamic(W),SubthresholdLeakage(W),GateLeakage(W),RunTimeDynamic(W)
7000000,0.0324,0.013523,0.002678,0.000431,0.023506
7000100,0.0324,0.013523,0.002678,0.000431,0.032908
7000200,0.0324,0.013523,0.002678,0.000431,0.032908
7000300,0.0324,0.013523,0.002678,0.000431,0.018805
7000400,0.0324,0.013523,0.002678,0.000431,0.023506
7000500,0.0324,0.013523,0.002678,0.000431,0.035258
7000600,0.0324,0.013523,0.002678,0.000431,0.039960
7000700,0.0324,0.013523,0.002678,0.000431,0.012928
7000800,0.0324,0.013523,0.002678,0.000431,0.043485
7000900,0.0324,0.013523,0.002678,0.000431,0.018805
7001000,0.0324,0.013523,0.002678,0.000431,0.032908
7001100,0.0324,0.013523,0.002678,0.000431,0.023506
7001200,0.0324,0.013523,0.002678,0.000431,0.037609
7001300,0.0324,0.013523,0.002678,0.000431,0.018805
7001400,0.0324,0.013523,0.002678,0.000431,0.023506
7001500,0.0324,0.013523,0.002678,0.000431,0.028207
7001600,0.0324,0.013523,0.002678,0.000431,0.011753
7001700,0.0324,0.013523,0.002678,0.000431,0.035258
7001800,0.0324,0.013523,0.002678,0.000431,0.017629
7001900,0.0324,0.013523,0.002678,0.000431,0.019980
7002000,0.0324,0.013523,0.002678,0.000431,0.028207
7002100,0.0324,0.013523,0.002678,0.000431,0.004701
7002200,0.0324,0.013523,0.002678,0.000431,0.032908
7002300,0.0324,0.013523,0.002678,0.000431,0.014103
7002400,0.0324,0.013523,0.002678,0.000431,0.018805
7002500,0.0324,0.013523,0.002678,0.000431,0.012928
7002600,0.0324,0.013523,0.002678,0.000431,0.029382
7002700,0.0324,0.013523,0.002678,0.000431,0.004701
7002800,0.0324,0.013523,0.002678,0.000431,0.032908
7002900,0.0324,0.013523,0.002678,0.000431,0.009402
7003000,0.0324,0.013523,0.002678,0.000431,0.023506
7003100,0.0324,0.013523,0.002678,0.000431,0.025856
7003200,0.0324,0.013523,0.002678,0.000431,0.016454
7003300,0.0324,0.013523,0.002678,0.000431,0.023506
7003400,0.0324,0.013523,0.002678,0.000431,0.009402
7003500,0.0324,0.013523,0.002678,0.000431,0.032908
7003600,0.0324,0.013523,0.002678,0.000431,0.009402
7003700,0.0324,0.013523,0.002678,0.000431,0.018805
7003800,0.0324,0.013523,0.002678,0.000431,0.018805
7003900,0.0324,0.013523,0.002678,0.000431,0.023506
7004000,0.0324,0.013523,0.002678,0.000431,0.014103
7004100,0.0324,0.013523,0.002678,0.000431,0.023506
7004200,0.0324,0.013523,0.002678,0.000431,0.015279
7004300,0.0324,0.013523,0.002678,0.000431,0.023506
7004400,0.0324,0.013523,0.002678,0.000431,0.015279
7004500,0.0324,0.013523,0.002678,0.000431,0.016454
7004600,0.0324,0.013523,0.002678,0.000431,0.032908
7004700,0.0324,0.013523,0.002678,0.000431,0.009402
7004800,0.0324,0.013523,0.002678,0.000431,0.027031
7004900,0.0324,0.013523,0.002678,0.000431,0.005876
7005000,0.0324,0.013523,0.002678,0.000431,0.025856
7005100,0.0324,0.013523,0.002678,0.000431,0.012928
7005200,0.0324,0.013523,0.002678,0.000431,0.022330
7005300,0.0324,0.013523,0.002678,0.000431,0.011753
7005400,0.0324,0.013523,0.002678,0.000431,0.022330
7005500,0.0324,0.013523,0.002678,0.000431,0.012928
7005600,0.0324,0.013523,0.002678,0.000431,0.018805
7005700,0.0324,0.013523,0.002678,0.000431,0.009402
7005800,0.0324,0.013523,0.002678,0.000431,0.014103
7005900,0.0324,0.013523,0.002678,0.000431,0.014103
7006000,0.0324,0.013523,0.002678,0.000431,0.009402
7006100,0.0324,0.013523,0.002678,0.000431,0.009402
7006200,0.0324,0.013523,0.002678,0.000431,0.012928
7006300,0.0324,0.013523,0.002678,0.000431,0.010578
7006400,0.0324,0.013523,0.002678,0.000431,0.014103
7006500,0.0324,0.013523,0.002678,0.000431,0.009402
7006600,0.0324,0.013523,0.002678,0.000431,0.014103
7006700,0.0324,0.013523,0.002678,0.000431,0.004701
7006800,0.0324,0.013523,0.002678,0.000431,0.014103
7006900,0.0324,0.013523,0.002678,0.000431,0.014103
7007000,0.0324,0.013523,0.002678,0.000431,0.009402
7007100,0.0324,0.013523,0.002678,0.000431,0.014103
7007200,0.0324,0.013523,0.002678,0.000431,0.014103
7007300,0.0324,0.013523,0.002678,0.000431,0.009402
7007400,0.0324,0.013523,0.002678,0.000431,0.009402
7007500,0.0324,0.013523,0.002678,0.000431,0.005876
7007600,0.0324,0.013523,0.002678,0.000431,0.017629
7007700,0.0324,0.013523,0.002678,0.000431,0.014103
7007800,0.0324,0.013523,0.002678,0.000431,0.004701
7007900,0.0324,0.013523,0.002678,0.000431,0.014103
7008000,0.0324,0.013523,0.002678,0.000431,0.014103
7008100,0.0324,0.013523,0.002678,0.000431,0.012928
7008200,0.0324,0.013523,0.002678,0.000431,0.005876
7008300,0.0324,0.013523,0.002678,0.000431,0.018805
7008400,0.0324,0.013523,0.002678,0.000431,0.008227
7008500,0.0324,0.013523,0.002678,0.000431,0.010578
7008600,0.0324,0.013523,0.002678,0.000431,0.018805
7008700,0.0324,0.013523,0.002678,0.000431,0.009402
7008800,0.0324,0.013523,0.002678,0.000431,0.004701
7008900,0.0324,0.013523,0.002678,0.000431,0.022330
7009000,0.0324,0.013523,0.002678,0.000431,0.005876
7009100,0.0324,0.013523,0.002678,0.000431,0.011753
7009200,0.0324,0.013523,0.002678,0.000431,0.016454
7009300,0.0324,0.013523,0.002678,0.000431,0.012928
7009400,0.0324,0.013523,0.002678,0.000431,0.005876
7009500,0.0324,0.013523,0.002678,0.000431,0.009402
7009600,0.0324,0.013523,0.002678,0.000431,0.018805
7009700,0.0324,0.013523,0.002678,0.000431,0.014103
7009800,0.0324,0.013523,0.002678,0.000431,0.009402
7009900,0.0324,0.013523,0.002678,0.000431,0.014103
7010000,0.0324,0.013523,0.002678,0.000431,0.004701
7010100,0.0324,0.013523,0.002678,0.000431,0.014103
7010200,0.0324,0.013523,0.002678,0.000431,0.014103
7010300,0.0324,0.013523,0.002678,0.000431,0.004701
7010400,0.0324,0.013523,0.002678,0.000431,0.018805
7010500,0.0324,0.013523,0.002678,0.000431,0.004701
7010600,0.0324,0.013523,0.002678,0.000431,0.014103
7010700,0.0324,0.013523,0.002678,0.000431,0.018805
7010800,0.0324,0.013523,0.002678,0.000431,0.004701
7010900,0.0324,0.013523,0.002678,0.000431,0.009402
7011000,0.0324,0.013523,0.002678,0.000431,0.018805
7011100,0.0324,0.013523,0.002678,0.000431,0.004701
7011200,0.0324,0.013523,0.002678,0.000431,0.009402
7011300,0.0324,0.013523,0.002678,0.000431,0.009402
7011400,0.0324,0.013523,0.002678,0.000431,0.014103
7011500,0.0324,0.013523,0.002678,0.000431,0.014103
7011600,0.0324,0.013523,0.002678,0.000431,0.009402
7011700,0.0324,0.013523,0.002678,0.000431,0.009402
7011800,0.0324,0.013523,0.002678,0.000431,0.009402
7011900,0.0324,0.013523,0.002678,0.000431,0.014103
7012000,0.0324,0.013523,0.002678,0.000431,0.009402
7012100,0.0324,0.013523,0.002678,0.000431,0.009402
7012200,0.0324,0.013523,0.002678,0.000431,0.018805
7012300,0.0324,0.013523,0.002678,0.000431,0.009402
7012400,0.0324,0.013523,0.002678,0.000431,0.004701
7012500,0.0324,0.013523,0.002678,0.000431,0.023506
7012600,0.0324,0.013523,0.002678,0.000431,0.004701
7012700,0.0324,0.013523,0.002678,0.000431,0.009402
7012800,0.0324,0.013523,0.002678,0.000431,0.014103
7012900,0.0324,0.013523,0.002678,0.000431,0.014103
7013000,0.0324,0.013523,0.002678,0.000431,0.009402
7013100,0.0324,0.013523,0.002678,0.000431,0.009402
7013200,0.0324,0.013523,0.002678,0.000431,0.018805
7013300,0.0324,0.013523,0.002678,0.000431,0.000000
7013400,0.0324,0.013523,0.002678,0.000431,0.018805
7013500,0.0324,0.013523,0.002678,0.000431,0.009402
7013600,0.0324,0.013523,0.002678,0.000431,0.009402
7013700,0.0324,0.013523,0.002678,0.000431,0.009402
7013800,0.0324,0.013523,0.002678,0.000431,0.009402
7013900,0.0324,0.013523,0.002678,0.000431,0.018805
7014000,0.0324,0.013523,0.002678,0.000431,0.004701
7014100,0.0324,0.013523,0.002678,0.000431,0.014103
7014200,0.0324,0.013523,0.002678,0.000431,0.018805
7014300,0.0324,0.013523,0.002678,0.000431,0.004701
7014400,0.0324,0.013523,0.002678,0.000431,0.009402
7014500,0.0324,0.013523,0.002678,0.000431,0.018805
7014600,0.0324,0.013523,0.002678,0.000431,0.004701
7014700,0.0324,0.013523,0.002678,0.000431,0.009402
7014800,0.0324,0.013523,0.002678,0.000431,0.014103
7014900,0.0324,0.013523,0.002678,0.000431,0.004701
7015000,0.0324,0.013523,0.002678,0.000431,0.018805
7015100,0.0324,0.013523,0.002678,0.000431,0.009402
7015200,0.0324,0.013523,0.002678,0.000431,0.014103
7015300,0.0324,0.013523,0.002678,0.000431,0.009402
7015400,0.0324,0.013523,0.002678,0.000431,0.007052
7015500,0.0324,0.013523,0.002678,0.000431,0.011753
7015600,0.0324,0.013523,0.002678,0.000431,0.009402
7015700,0.0324,0.013523,0.002678,0.000431,0.018805
7015800,0.0324,0.013523,0.002678,0.000431,0.009402
7015900,0.0324,0.013523,0.002678,0.000431,0.004701
7016000,0.0324,0.013523,0.002678,0.000431,0.016454
7016100,0.0324,0.013523,0.002678,0.000431,0.011753
7016200,0.0324,0.013523,0.002678,0.000431,0.009402
7016300,0.0324,0.013523,0.002678,0.000431,0.014103
7016400,0.0324,0.013523,0.002678,0.000431,0.014103
7016500,0.0324,0.013523,0.002678,0.000431,0.009402
7016600,0.0324,0.013523,0.002678,0.000431,0.004701
7016700,0.0324,0.013523,0.002678,0.000431,0.018805
7016800,0.0324,0.013523,0.002678,0.000431,0.009402
7016900,0.0324,0.013523,0.002678,0.000431,0.009402
7017000,0.0324,0.013523,0.002678,0.000431,0.014103
7017100,0.0324,0.013523,0.002678,0.000431,0.014103
7017200,0.0324,0.013523,0.002678,0.000431,0.009402
7017300,0.0324,0.013523,0.002678,0.000431,0.009402
7017400,0.0324,0.013523,0.002678,0.000431,0.014103
7017500,0.0324,0.013523,0.002678,0.000431,0.014103
7017600,0.0324,0.013523,0.002678,0.000431,0.004701
7017700,0.0324,0.013523,0.002678,0.000431,0.028207
7017800,0.0324,0.013523,0.002678,0.000431,0.009402
7017900,0.0324,0.013523,0.002678,0.000431,0.023506
7018000,0.0324,0.013523,0.002678,0.000431,0.007052
7018100,0.0324,0.013523,0.002678,0.000431,0.021155
7018200,0.0324,0.013523,0.002678,0.000431,0.018805
7018300,0.0324,0.013523,0.002678,0.000431,0.023506
7018400,0.0324,0.013523,0.002678,0.000431,0.010578
7018500,0.0324,0.013523,0.002678,0.000431,0.027031
7018600,0.0324,0.013523,0.002678,0.000431,0.016454
7018700,0.0324,0.013523,0.002678,0.000431,0.011753
7018800,0.0324,0.013523,0.002678,0.000431,0.018805
7018900,0.0324,0.013523,0.002678,0.000431,0.032908
7019000,0.0324,0.013523,0.002678,0.000431,0.018805
7019100,0.0324,0.013523,0.002678,0.000431,0.018805
7019200,0.0324,0.013523,0.002678,0.000431,0.023506
7019300,0.0324,0.013523,0.002678,0.000431,0.037609
7019400,0.0324,0.013523,0.002678,0.000431,0.018805
7019500,0.0324,0.013523,0.002678,0.000431,0.032908
7019600,0.0324,0.013523,0.002678,0.000431,0.030557
7019700,0.0324,0.013523,0.002678,0.000431,0.030557
7019800,0.0324,0.013523,0.002678,0.000431,0.019980
7019900,0.0324,0.013523,0.002678,0.000431,0.045836
7020000,0.0324,0.013523,0.002678,0.000431,0.042310
7020100,0.0324,0.013523,0.002678,0.000431,0.014103
7020200,0.0324,0.013523,0.002678,0.000431,0.037609
7020300,0.0324,0.013523,0.002678,0.000431,0.025856
7020400,0.0324,0.013523,0.002678,0.000431,0.030557
7020500,0.0324,0.013523,0.002678,0.000431,0.018805
7020600,0.0324,0.013523,0.002678,0.000431,0.041135
7020700,0.0324,0.013523,0.002678,0.000431,0.029382
7020800,0.0324,0.013523,0.002678,0.000431,0.028207
7020900,0.0324,0.013523,0.002678,0.000431,0.032908
7021000,0.0324,0.013523,0.002678,0.000431,0.051712
7021100,0.0324,0.013523,0.002678,0.000431,0.047011
7021200,0.0324,0.013523,0.002678,0.000431,0.015279
7021300,0.0324,0.013523,0.002678,0.000431,0.059939
7021400,0.0324,0.013523,0.002678,0.000431,0.023506
7021500,0.0324,0.013523,0.002678,0.000431,0.032908
7021600,0.0324,0.013523,0.002678,0.000431,0.032908
7021700,0.0324,0.013523,0.002678,0.000431,0.032908
7021800,0.0324,0.013523,0.002678,0.000431,0.014103
7021900,0.0324,0.013523,0.002678,0.000431,0.037609
7022000,0.0324,0.013523,0.002678,0.000431,0.023506
7022100,0.0324,0.013523,0.002678,0.000431,0.028207
7022200,0.0324,0.013523,0.002678,0.000431,0.029382
7022300,0.0324,0.013523,0.002678,0.000431,0.031733
7022400,0.0324,0.013523,0.002678,0.000431,0.022330
7022500,0.0324,0.013523,0.002678,0.000431,0.023506
7022600,0.0324,0.013523,0.002678,0.000431,0.048187
7022700,0.0324,0.013523,0.002678,0.000431,0.008227
7022800,0.0324,0.013523,0.002678,0.000431,0.034083
7022900,0.0324,0.013523,0.002678,0.000431,0.028207
7023000,0.0324,0.013523,0.002678,0.000431,0.014103
7023100,0.0324,0.013523,0.002678,0.000431,0.014103
7023200,0.0324,0.013523,0.002678,0.000431,0.018805
7023300,0.0324,0.013523,0.002678,0.000431,0.023506
7023400,0.0324,0.013523,0.002678,0.000431,0.000000
7023500,0.0324,0.013523,0.002678,0.000431,0.014103
7023600,0.0324,0.013523,0.002678,0.000431,0.018805
7023700,0.0324,0.013523,0.002678,0.000431,0.014103
7023800,0.0324,0.013523,0.002678,0.000431,0.000000
7023900,0.0324,0.013523,0.002678,0.000431,0.028207
7024000,0.0324,0.013523,0.002678,0.000431,0.016454
7024100,0.0324,0.013523,0.002678,0.000431,0.007052
7024200,0.0324,0.013523,0.002678,0.000431,0.022330
7024300,0.0324,0.013523,0.002678,0.000431,0.005876
7024400,0.0324,0.013523,0.002678,0.000431,0.009402
7024500,0.0324,0.013523,0.002678,0.000431,0.014103
7024600,0.0324,0.013523,0.002678,0.000431,0.014103
7024700,0.0324,0.013523,0.002678,0.000431,0.000000
7024800,0.0324,0.013523,0.002678,0.000431,0.004701
7024900,0.0324,0.013523,0.002678,0.000431,0.014103
7025000,0.0324,0.013523,0.002678,0.000431,0.000000
7025100,0.0324,0.013523,0.002678,0.000431,0.004701
7025200,0.0324,0.013523,0.002678,0.000431,0.009402
7025300,0.0324,0.013523,0.002678,0.000431,0.004701
7025400,0.0324,0.013523,0.002678,0.000431,0.004701
7025500,0.0324,0.013523,0.002678,0.000431,0.000000
7025600,0.0324,0.013523,0.002678,0.000431,0.014103
7025700,0.0324,0.013523,0.002678,0.000431,0.004701
7025800,0.0324,0.013523,0.002678,0.000431,0.000000
7025900,0.0324,0.013523,0.002678,0.000431,0.009402
7026000,0.0324,0.013523,0.002678,0.000431,0.004701
7026100,0.0324,0.013523,0.002678,0.000431,0.004701
7026200,0.0324,0.013523,0.002678,0.000431,0.004701
7026300,0.0324,0.013523,0.002678,0.000431,0.009402
7026400,0.0324,0.013523,0.002678,0.000431,0.004701
7026500,0.0324,0.013523,0.002678,0.000431,0.004701
7026600,0.0324,0.013523,0.002678,0.000431,0.009402
7026700,0.0324,0.013523,0.002678,0.000431,0.000000
7026800,0.0324,0.013523,0.002678,0.000431,0.004701
7026900,0.0324,0.013523,0.002678,0.000431,0.014103
7027000,0.0324,0.013523,0.002678,0.000431,0.000000
7027100,0.0324,0.013523,0.002678,0.000431,0.004701
7027200,0.0324,0.013523,0.002678,0.000431,0.009402
7027300,0.0324,0.013523,0.002678,0.000431,0.004701
7027400,0.0324,0.013523,0.002678,0.000431,0.004701
7027500,0.0324,0.013523,0.002678,0.000431,0.009402
7027600,0.0324,0.013523,0.002678,0.000431,0.004701
7027700,0.0324,0.013523,0.002678,0.000431,0.004701
7027800,0.0324,0.013523,0.002678,0.000431,0.009402
7027900,0.0324,0.013523,0.002678,0.000431,0.000000
7028000,0.0324,0.013523,0.002678,0.000431,0.009402
7028100,0.0324,0.013523,0.002678,0.000431,0.004701
7028200,0.0324,0.013523,0.002678,0.000431,0.004701
7028300,0.0324,0.013523,0.002678,0.000431,0.009402
7028400,0.0324,0.013523,0.002678,0.000431,0.004701
7028500,0.0324,0.013523,0.002678,0.000431,0.004701
7028600,0.0324,0.013523,0.002678,0.000431,0.004701
7028700,0.0324,0.013523,0.002678,0.000431,0.009402
7028800,0.0324,0.013523,0.002678,0.000431,0.004701
7028900,0.0324,0.013523,0.002678,0.000431,0.004701
7029000,0.0324,0.013523,0.002678,0.000431,0.009402
7029100,0.0324,0.013523,0.002678,0.000431,0.004701
7029200,0.0324,0.013523,0.002678,0.000431,0.000000
7029300,0.0324,0.013523,0.002678,0.000431,0.004701
7029400,0.0324,0.013523,0.002678,0.000431,0.009402
7029500,0.0324,0.013523,0.002678,0.000431,0.004701
7029600,0.0324,0.013523,0.002678,0.000431,0.004701
7029700,0.0324,0.013523,0.002678,0.000431,0.009402
7029800,0.0324,0.013523,0.002678,0.000431,0.004701
7029900,0.0324,0.013523,0.002678,0.000431,0.004701
7030000,0.0324,0.013523,0.002678,0.000431,0.004701
7030100,0.0324,0.013523,0.002678,0.000431,0.004701
7030200,0.0324,0.013523,0.002678,0.000431,0.009402
7030300,0.0324,0.013523,0.002678,0.000431,0.004701
7030400,0.0324,0.013523,0.002678,0.000431,0.004701
7030500,0.0324,0.013523,0.002678,0.000431,0.009402
7030600,0.0324,0.013523,0.002678,0.000431,0.000000
7030700,0.0324,0.013523,0.002678,0.000431,0.009402
7030800,0.0324,0.013523,0.002678,0.000431,0.004701
7030900,0.0324,0.013523,0.002678,0.000431,0.004701
7031000,0.0324,0.013523,0.002678,0.000431,0.009402
7031100,0.0324,0.013523,0.002678,0.000431,0.004701
7031200,0.0324,0.013523,0.002678,0.000431,0.004701
7031300,0.0324,0.013523,0.002678,0.000431,0.009402
7031400,0.0324,0.013523,0.002678,0.000431,0.004701
7031500,0.0324,0.013523,0.002678,0.000431,0.000000
7031600,0.0324,0.013523,0.002678,0.000431,0.023506
7031700,0.0324,0.013523,0.002678,0.000431,0.004701
7031800,0.0324,0.013523,0.002678,0.000431,0.014103
7031900,0.0324,0.013523,0.002678,0.000431,0.000000
7032000,0.0324,0.013523,0.002678,0.000431,0.022330
7032100,0.0324,0.013523,0.002678,0.000431,0.005876
7032200,0.0324,0.013523,0.002678,0.000431,0.014103
7032300,0.0324,0.013523,0.002678,0.000431,0.004701
7032400,0.0324,0.013523,0.002678,0.000431,0.023506
7032500,0.0324,0.013523,0.002678,0.000431,0.000000
7032600,0.0324,0.013523,0.002678,0.000431,0.014103
7032700,0.0324,0.013523,0.002678,0.000431,0.015279
7032800,0.0324,0.013523,0.002678,0.000431,0.012928
7032900,0.0324,0.013523,0.002678,0.000431,0.007052
7033000,0.0324,0.013523,0.002678,0.000431,0.016454
7033100,0.0324,0.013523,0.002678,0.000431,0.018805
7033200,0.0324,0.013523,0.002678,0.000431,0.000000
7033300,0.0324,0.013523,0.002678,0.000431,0.018805
7033400,0.0324,0.013523,0.002678,0.000431,0.009402
7033500,0.0324,0.013523,0.002678,0.000431,0.014103
7033600,0.0324,0.013523,0.002678,0.000431,0.004701
7033700,0.0324,0.013523,0.002678,0.000431,0.018805
7033800,0.0324,0.013523,0.002678,0.000431,0.004701
7033900,0.0324,0.013523,0.002678,0.000431,0.014103
7034000,0.0324,0.013523,0.002678,0.000431,0.004701
7034100,0.0324,0.013523,0.002678,0.000431,0.028207
7034200,0.0324,0.013523,0.002678,0.000431,0.018805
7034300,0.0324,0.013523,0.002678,0.000431,0.014103
7034400,0.0324,0.013523,0.002678,0.000431,0.018805
7034500,0.0324,0.013523,0.002678,0.000431,0.018805
7034600,0.0324,0.013523,0.002678,0.000431,0.018805
7034700,0.0324,0.013523,0.002678,0.000431,0.014103
7034800,0.0324,0.013523,0.002678,0.000431,0.014103
7034900,0.0324,0.013523,0.002678,0.000431,0.018805
7035000,0.0324,0.013523,0.002678,0.000431,0.018805
7035100,0.0324,0.013523,0.002678,0.000431,0.014103
7035200,0.0324,0.013523,0.002678,0.000431,0.028207
7035300,0.0324,0.013523,0.002678,0.000431,0.018805
7035400,0.0324,0.013523,0.002678,0.000431,0.010578
7035500,0.0324,0.013523,0.002678,0.000431,0.012928
7035600,0.0324,0.013523,0.002678,0.000431,0.023506
7035700,0.0324,0.013523,0.002678,0.000431,0.000000
7035800,0.0324,0.013523,0.002678,0.000431,0.014103
7035900,0.0324,0.013523,0.002678,0.000431,0.000000
7036000,0.0324,0.013523,0.002678,0.000431,0.023506
7036100,0.0324,0.013523,0.002678,0.000431,0.000000
7036200,0.0324,0.013523,0.002678,0.000431,0.014103
7036300,0.0324,0.013523,0.002678,0.000431,0.009402
7036400,0.0324,0.013523,0.002678,0.000431,0.014103
7036500,0.0324,0.013523,0.002678,0.000431,0.000000
7036600,0.0324,0.013523,0.002678,0.000431,0.014103
7036700,0.0324,0.013523,0.002678,0.000431,0.032908
7036800,0.0324,0.013523,0.002678,0.000431,0.000000
7036900,0.0324,0.013523,0.002678,0.000431,0.028207
7037000,0.0324,0.013523,0.002678,0.000431,0.017629
7037100,0.0324,0.013523,0.002678,0.000431,0.015279
7037200,0.0324,0.013523,0.002678,0.000431,0.014103
7037300,0.0324,0.013523,0.002678,0.000431,0.014103
7037400,0.0324,0.013523,0.002678,0.000431,0.018805
7037500,0.0324,0.013523,0.002678,0.000431,0.014103
7037600,0.0324,0.013523,0.002678,0.000431,0.014103
7037700,0.0324,0.013523,0.002678,0.000431,0.018805
7037800,0.0324,0.013523,0.002678,0.000431,0.022330
7037900,0.0324,0.013523,0.002678,0.000431,0.001175
7038000,0.0324,0.013523,0.002678,0.000431,0.023506
7038100,0.0324,0.013523,0.002678,0.000431,0.004701
7038200,0.0324,0.013523,0.002678,0.000431,0.014103
7038300,0.0324,0.013523,0.002678,0.000431,0.000000
7038400,0.0324,0.013523,0.002678,0.000431,0.018805
7038500,0.0324,0.013523,0.002678,0.000431,0.014103
7038600,0.0324,0.013523,0.002678,0.000431,0.000000
7038700,0.0324,0.013523,0.002678,0.000431,0.018805
7038800,0.0324,0.013523,0.002678,0.000431,0.000000
7038900,0.0324,0.013523,0.002678,0.000431,0.014103
