Cycle,Area(mm^2),PeakDynamic(W),SubthresholdLeakage(W),GateLeakage(W),RunTimeDynamic(W)
4000000,0.0324,0.013523,0.002678,0.000431,0.009285
4001000,0.0324,0.013523,0.002678,0.000431,0.007992
4002000,0.0324,0.013523,0.002678,0.000431,0.008227
4003000,0.0324,0.013523,0.002678,0.000431,0.008109
4004000,0.0324,0.013523,0.002678,0.000431,0.008109
4005000,0.0324,0.013523,0.002678,0.000431,0.008580
4006000,0.0324,0.013523,0.002678,0.000431,0.007992
4007000,0.0324,0.013523,0.002678,0.000431,0.008345
4008000,0.0324,0.013523,0.002678,0.000431,0.008109
4009000,0.0324,0.013523,0.002678,0.000431,0.008109
4010000,0.0324,0.013523,0.002678,0.000431,0.007639
4011000,0.0324,0.013523,0.002678,0.000431,0.008227
4012000,0.0324,0.013523,0.002678,0.000431,0.007757
4013000,0.0324,0.013523,0.002678,0.000431,0.008580
4014000,0.0324,0.013523,0.002678,0.000431,0.008109
4015000,0.0324,0.013523,0.002678,0.000431,0.008227
4016000,0.0324,0.013523,0.002678,0.000431,0.007874
4017000,0.0324,0.013523,0.002678,0.000431,0.007522
4018000,0.0324,0.013523,0.002678,0.000431,0.007287
4019000,0.0324,0.013523,0.002678,0.000431,0.007639
4020000,0.0324,0.013523,0.002678,0.000431,0.007169
4021000,0.0324,0.013523,0.002678,0.000431,0.007639
4022000,0.0324,0.013523,0.002678,0.000431,0.007404
4023000,0.0324,0.013523,0.002678,0.000431,0.007287
4024000,0.0324,0.013523,0.002678,0.000431,0.007639
4025000,0.0324,0.013523,0.002678,0.000431,0.007522
4026000,0.0324,0.013523,0.002678,0.000431,0.007052
4027000,0.0324,0.013523,0.002678,0.000431,0.007287
4028000,0.0324,0.013523,0.002678,0.000431,0.007639
4029000,0.0324,0.013523,0.002678,0.000431,0.007404
4030000,0.0324,0.013523,0.002678,0.000431,0.007169
4031000,0.0324,0.013523,0.002678,0.000431,0.007757
4032000,0.0324,0.013523,0.002678,0.000431,0.007287
4033000,0.0324,0.013523,0.002678,0.000431,0.007169
4034000,0.0324,0.013523,0.002678,0.000431,0.007522
4035000,0.0324,0.013523,0.002678,0.000431,0.007874
4036000,0.0324,0.013523,0.002678,0.000431,0.007639
4037000,0.0324,0.013523,0.002678,0.000431,0.007757
4038000,0.0324,0.013523,0.002678,0.000431,0.007169
4039000,0.0324,0.013523,0.002678,0.000431,0.007757
4040000,0.0324,0.013523,0.002678,0.000431,0.007404
4041000,0.0324,0.013523,0.002678,0.000431,0.008109
4042000,0.0324,0.013523,0.002678,0.000431,0.007169
4043000,0.0324,0.013523,0.002678,0.000431,0.008109
4044000,0.0324,0.013523,0.002678,0.000431,0.007757
4045000,0.0324,0.013523,0.002678,0.000431,0.007404
4046000,0.0324,0.013523,0.002678,0.000431,0.007757
4047000,0.0324,0.013523,0.002678,0.000431,0.007404
4048000,0.0324,0.013523,0.002678,0.000431,0.007169
4049000,0.0324,0.013523,0.002678,0.000431,0.007757
4050000,0.0324,0.013523,0.002678,0.000431,0.007404
4051000,0.0324,0.013523,0.002678,0.000431,0.007052
4052000,0.0324,0.013523,0.002678,0.000431,0.007287
4053000,0.0324,0.013523,0.002678,0.000431,0.007287
4054000,0.0324,0.013523,0.002678,0.000431,0.007757
4055000,0.0324,0.013523,0.002678,0.000431,0.007169
4056000,0.0324,0.013523,0.002678,0.000431,0.007874
4057000,0.0324,0.013523,0.002678,0.000431,0.007404
4058000,0.0324,0.013523,0.002678,0.000431,0.007169
4059000,0.0324,0.013523,0.002678,0.000431,0.007639
4060000,0.0324,0.013523,0.002678,0.000431,0.007639
4061000,0.0324,0.013523,0.002678,0.000431,0.008227
4062000,0.0324,0.013523,0.002678,0.000431,0.007639
4063000,0.0324,0.013523,0.002678,0.000431,0.007522
4064000,0.0324,0.013523,0.002678,0.000431,0.007404
4065000,0.0324,0.013523,0.002678,0.000431,0.007169
4066000,0.0324,0.013523,0.002678,0.000431,0.007169
4067000,0.0324,0.013523,0.002678,0.000431,0.006464
4068000,0.0324,0.013523,0.002678,0.000431,0.007287
4069000,0.0324,0.013523,0.002678,0.000431,0.006582
4070000,0.0324,0.013523,0.002678,0.000431,0.007169
4071000,0.0324,0.013523,0.002678,0.000431,0.006699
4072000,0.0324,0.013523,0.002678,0.000431,0.007287
4073000,0.0324,0.013523,0.002678,0.000431,0.007052
4074000,0.0324,0.013523,0.002678,0.000431,0.006934
4075000,0.0324,0.013523,0.002678,0.000431,0.006347
4076000,0.0324,0.013523,0.002678,0.000431,0.007287
4077000,0.0324,0.013523,0.002678,0.000431,0.006934
4078000,0.0324,0.013523,0.002678,0.000431,0.006934
4079000,0.0324,0.013523,0.002678,0.000431,0.006817
4080000,0.0324,0.013523,0.002678,0.000431,0.006817
4081000,0.0324,0.013523,0.002678,0.000431,0.006699
4082000,0.0324,0.013523,0.002678,0.000431,0.007287
4083000,0.0324,0.013523,0.002678,0.000431,0.006934
4084000,0.0324,0.013523,0.002678,0.000431,0.006699
4085000,0.0324,0.013523,0.002678,0.000431,0.006817
4086000,0.0324,0.013523,0.002678,0.000431,0.006817
4087000,0.0324,0.013523,0.002678,0.000431,0.006464
4088000,0.0324,0.013523,0.002678,0.000431,0.006934
4089000,0.0324,0.013523,0.002678,0.000431,0.006817
4090000,0.0324,0.013523,0.002678,0.000431,0.006699
4091000,0.0324,0.013523,0.002678,0.000431,0.007052
4092000,0.0324,0.013523,0.002678,0.000431,0.007169
4093000,0.0324,0.013523,0.002678,0.000431,0.006699
4094000,0.0324,0.013523,0.002678,0.000431,0.006817
4095000,0.0324,0.013523,0.002678,0.000431,0.006817
4096000,0.0324,0.013523,0.002678,0.000431,0.007052
4097000,0.0324,0.013523,0.002678,0.000431,0.006817
4098000,0.0324,0.013523,0.002678,0.000431,0.007052
4099000,0.0324,0.013523,0.002678,0.000431,0.006347
4100000,0.0324,0.013523,0.002678,0.000431,0.007052
4101000,0.0324,0.013523,0.002678,0.000431,0.006934
4102000,0.0324,0.013523,0.002678,0.000431,0.006229
4103000,0.0324,0.013523,0.002678,0.000431,0.006699
4104000,0.0324,0.013523,0.002678,0.000431,0.007052
4105000,0.0324,0.013523,0.002678,0.000431,0.006582
4106000,0.0324,0.013523,0.002678,0.000431,0.006582
4107000,0.0324,0.013523,0.002678,0.000431,0.007052
4108000,0.0324,0.013523,0.002678,0.000431,0.007052
4109000,0.0324,0.013523,0.002678,0.000431,0.007052
4110000,0.0324,0.013523,0.002678,0.000431,0.006699
4111000,0.0324,0.013523,0.002678,0.000431,0.006817
4112000,0.0324,0.013523,0.002678,0.000431,0.007287
4113000,0.0324,0.013523,0.002678,0.000431,0.006817
4114000,0.0324,0.013523,0.002678,0.000431,0.006934
4115000,0.0324,0.013523,0.002678,0.000431,0.006817
4116000,0.0324,0.013523,0.002678,0.000431,0.006582
4117000,0.0324,0.013523,0.002678,0.000431,0.006934
4118000,0.0324,0.013523,0.002678,0.000431,0.006699
4119000,0.0324,0.013523,0.002678,0.000431,0.006934
4120000,0.0324,0.013523,0.002678,0.000431,0.007169
4121000,0.0324,0.013523,0.002678,0.000431,0.006934
4122000,0.0324,0.013523,0.002678,0.000431,0.006817
4123000,0.0324,0.013523,0.002678,0.000431,0.006582
4124000,0.0324,0.013523,0.002678,0.000431,0.006347
4125000,0.0324,0.013523,0.002678,0.000431,0.007287
4126000,0.0324,0.013523,0.002678,0.000431,0.006817
4127000,0.0324,0.013523,0.002678,0.000431,0.006817
4128000,0.0324,0.013523,0.002678,0.000431,0.007052
4129000,0.0324,0.013523,0.002678,0.000431,0.006817
4130000,0.0324,0.013523,0.002678,0.000431,0.006582
4131000,0.0324,0.013523,0.002678,0.000431,0.007052
4132000,0.0324,0.013523,0.002678,0.000431,0.007287
4133000,0.0324,0.013523,0.002678,0.000431,0.006347
4134000,0.0324,0.013523,0.002678,0.000431,0.006817
4135000,0.0324,0.013523,0.002678,0.000431,0.006699
4136000,0.0324,0.013523,0.002678,0.000431,0.007169
4137000,0.0324,0.013523,0.002678,0.000431,0.007404
4138000,0.0324,0.013523,0.002678,0.000431,0.006464
4139000,0.0324,0.013523,0.002678,0.000431,0.007522
4140000,0.0324,0.013523,0.002678,0.000431,0.007052
4141000,0.0324,0.013523,0.002678,0.000431,0.006464
4142000,0.0324,0.013523,0.002678,0.000431,0.007169
4143000,0.0324,0.013523,0.002678,0.000431,0.007169
4144000,0.0324,0.013523,0.002678,0.000431,0.006817
4145000,0.0324,0.013523,0.002678,0.000431,0.007169
4146000,0.0324,0.013523,0.002678,0.000431,0.006934
4147000,0.0324,0.013523,0.002678,0.000431,0.006464
4148000,0.0324,0.013523,0.002678,0.000431,0.006464
4149000,0.0324,0.013523,0.002678,0.000431,0.007287
4150000,0.0324,0.013523,0.002678,0.000431,0.006464
4151000,0.0324,0.013523,0.002678,0.000431,0.006817
4152000,0.0324,0.013523,0.002678,0.000431,0.006464
4153000,0.0324,0.013523,0.002678,0.000431,0.007052
4154000,0.0324,0.013523,0.002678,0.000431,0.006817
4155000,0.0324,0.013523,0.002678,0.000431,0.007052
4156000,0.0324,0.013523,0.002678,0.000431,0.006817
4157000,0.0324,0.013523,0.002678,0.000431,0.006817
4158000,0.0324,0.013523,0.002678,0.000431,0.006934
4159000,0.0324,0.013523,0.002678,0.000431,0.006934
4160000,0.0324,0.013523,0.002678,0.000431,0.006934
4161000,0.0324,0.013523,0.002678,0.000431,0.007169
4162000,0.0324,0.013523,0.002678,0.000431,0.006699
4163000,0.0324,0.013523,0.002678,0.000431,0.006934
4164000,0.0324,0.013523,0.002678,0.000431,0.006699
4165000,0.0324,0.013523,0.002678,0.000431,0.007404
4166000,0.0324,0.013523,0.002678,0.000431,0.007169
4167000,0.0324,0.013523,0.002678,0.000431,0.006699
4168000,0.0324,0.013523,0.002678,0.000431,0.006934
4169000,0.0324,0.013523,0.002678,0.000431,0.006934
4170000,0.0324,0.013523,0.002678,0.000431,0.006817
4171000,0.0324,0.013523,0.002678,0.000431,0.006699
4172000,0.0324,0.013523,0.002678,0.000431,0.007169
4173000,0.0324,0.013523,0.002678,0.000431,0.007169
4174000,0.0324,0.013523,0.002678,0.000431,0.007052
4175000,0.0324,0.013523,0.002678,0.000431,0.006111
4176000,0.0324,0.013523,0.002678,0.000431,0.006111
4177000,0.0324,0.013523,0.002678,0.000431,0.005759
4178000,0.0324,0.013523,0.002678,0.000431,0.006347
4179000,0.0324,0.013523,0.002678,0.000431,0.006347
4180000,0.0324,0.013523,0.002678,0.000431,0.006229
4181000,0.0324,0.013523,0.002678,0.000431,0.005876
4182000,0.0324,0.013523,0.002678,0.000431,0.006111
4183000,0.0324,0.013523,0.002678,0.000431,0.006464
4184000,0.0324,0.013523,0.002678,0.000431,0.006347
4185000,0.0324,0.013523,0.002678,0.000431,0.006582
4186000,0.0324,0.013523,0.002678,0.000431,0.005994
4187000,0.0324,0.013523,0.002678,0.000431,0.007052
4188000,0.0324,0.013523,0.002678,0.000431,0.006347
4189000,0.0324,0.013523,0.002678,0.000431,0.006111
4190000,0.0324,0.013523,0.002678,0.000431,0.006464
4191000,0.0324,0.013523,0.002678,0.000431,0.006347
4192000,0.0324,0.013523,0.002678,0.000431,0.005876
4193000,0.0324,0.013523,0.002678,0.000431,0.005994
4194000,0.0324,0.013523,0.002678,0.000431,0.006464
4195000,0.0324,0.013523,0.002678,0.000431,0.006229
4196000,0.0324,0.013523,0.002678,0.000431,0.005289
4197000,0.0324,0.013523,0.002678,0.000431,0.006111
4198000,0.0324,0.013523,0.002678,0.000431,0.005994
4199000,0.0324,0.013523,0.002678,0.000431,0.006347
4200000,0.0324,0.013523,0.002678,0.000431,0.005994
4201000,0.0324,0.013523,0.002678,0.000431,0.006699
4202000,0.0324,0.013523,0.002678,0.000431,0.005994
4203000,0.0324,0.013523,0.002678,0.000431,0.005994
4204000,0.0324,0.013523,0.002678,0.000431,0.006464
4205000,0.0324,0.013523,0.002678,0.000431,0.005994
4206000,0.0324,0.013523,0.002678,0.000431,0.005406
4207000,0.0324,0.013523,0.002678,0.000431,0.006229
4208000,0.0324,0.013523,0.002678,0.000431,0.005994
4209000,0.0324,0.013523,0.002678,0.000431,0.006229
4210000,0.0324,0.013523,0.002678,0.000431,0.005876
4211000,0.0324,0.013523,0.002678,0.000431,0.006464
4212000,0.0324,0.013523,0.002678,0.000431,0.006111
4213000,0.0324,0.013523,0.002678,0.000431,0.006229
4214000,0.0324,0.013523,0.002678,0.000431,0.006229
4215000,0.0324,0.013523,0.002678,0.000431,0.006111
4216000,0.0324,0.013523,0.002678,0.000431,0.005994
4217000,0.0324,0.013523,0.002678,0.000431,0.005876
4218000,0.0324,0.013523,0.002678,0.000431,0.006229
4219000,0.0324,0.013523,0.002678,0.000431,0.006347
4220000,0.0324,0.013523,0.002678,0.000431,0.005994
4221000,0.0324,0.013523,0.002678,0.000431,0.006582
4222000,0.0324,0.013523,0.002678,0.000431,0.005994
4223000,0.0324,0.013523,0.002678,0.000431,0.005994
4224000,0.0324,0.013523,0.002678,0.000431,0.006347
4225000,0.0324,0.013523,0.002678,0.000431,0.006229
4226000,0.0324,0.013523,0.002678,0.000431,0.005759
4227000,0.0324,0.013523,0.002678,0.000431,0.005759
4228000,0.0324,0.013523,0.002678,0.000431,0.006229
4229000,0.0324,0.013523,0.002678,0.000431,0.005759
4230000,0.0324,0.013523,0.002678,0.000431,0.006464
4231000,0.0324,0.013523,0.002678,0.000431,0.006111
4232000,0.0324,0.013523,0.002678,0.000431,0.005876
4233000,0.0324,0.013523,0.002678,0.000431,0.006229
4234000,0.0324,0.013523,0.002678,0.000431,0.005759
4235000,0.0324,0.013523,0.002678,0.000431,0.006464
4236000,0.0324,0.013523,0.002678,0.000431,0.006229
4237000,0.0324,0.013523,0.002678,0.000431,0.006229
4238000,0.0324,0.013523,0.002678,0.000431,0.006111
4239000,0.0324,0.013523,0.002678,0.000431,0.006111
4240000,0.0324,0.013523,0.002678,0.000431,0.006347
4241000,0.0324,0.013523,0.002678,0.000431,0.006347
4242000,0.0324,0.013523,0.002678,0.000431,0.006229
4243000,0.0324,0.013523,0.002678,0.000431,0.006229
4244000,0.0324,0.013523,0.002678,0.000431,0.006817
4245000,0.0324,0.013523,0.002678,0.000431,0.006111
4246000,0.0324,0.013523,0.002678,0.000431,0.006582
4247000,0.0324,0.013523,0.002678,0.000431,0.006347
4248000,0.0324,0.013523,0.002678,0.000431,0.006582
4249000,0.0324,0.013523,0.002678,0.000431,0.005876
4250000,0.0324,0.013523,0.002678,0.000431,0.006229
4251000,0.0324,0.013523,0.002678,0.000431,0.006582
4252000,0.0324,0.013523,0.002678,0.000431,0.006347
4253000,0.0324,0.013523,0.002678,0.000431,0.005876
4254000,0.0324,0.013523,0.002678,0.000431,0.006464
4255000,0.0324,0.013523,0.002678,0.000431,0.006582
4256000,0.0324,0.013523,0.002678,0.000431,0.006229
4257000,0.0324,0.013523,0.002678,0.000431,0.006111
4258000,0.0324,0.013523,0.002678,0.000431,0.006347
4259000,0.0324,0.013523,0.002678,0.000431,0.006347
4260000,0.0324,0.013523,0.002678,0.000431,0.006347
4261000,0.0324,0.013523,0.002678,0.000431,0.005994
4262000,0.0324,0.013523,0.002678,0.000431,0.006229
4263000,0.0324,0.013523,0.002678,0.000431,0.005876
4264000,0.0324,0.013523,0.002678,0.000431,0.006582
4265000,0.0324,0.013523,0.002678,0.000431,0.006111
4266000,0.0324,0.013523,0.002678,0.000431,0.006229
4267000,0.0324,0.013523,0.002678,0.000431,0.006699
4268000,0.0324,0.013523,0.002678,0.000431,0.005876
4269000,0.0324,0.013523,0.002678,0.000431,0.006229
4270000,0.0324,0.013523,0.002678,0.000431,0.006229
4271000,0.0324,0.013523,0.002678,0.000431,0.006229
4272000,0.0324,0.013523,0.002678,0.000431,0.006582
4273000,0.0324,0.013523,0.002678,0.000431,0.006229
4274000,0.0324,0.013523,0.002678,0.000431,0.006347
4275000,0.0324,0.013523,0.002678,0.000431,0.006464
4276000,0.0324,0.013523,0.002678,0.000431,0.005759
4277000,0.0324,0.013523,0.002678,0.000431,0.006347
4278000,0.0324,0.013523,0.002678,0.000431,0.006229
4279000,0.0324,0.013523,0.002678,0.000431,0.006582
4280000,0.0324,0.013523,0.002678,0.000431,0.006464
4281000,0.0324,0.013523,0.002678,0.000431,0.006464
4282000,0.0324,0.013523,0.002678,0.000431,0.006111
4283000,0.0324,0.013523,0.002678,0.000431,0.005994
4284000,0.0324,0.013523,0.002678,0.000431,0.006582
4285000,0.0324,0.013523,0.002678,0.000431,0.006111
4286000,0.0324,0.013523,0.002678,0.000431,0.006229
4287000,0.0324,0.013523,0.002678,0.000431,0.005759
4288000,0.0324,0.013523,0.002678,0.000431,0.005876
4289000,0.0324,0.013523,0.002678,0.000431,0.005406
4290000,0.0324,0.013523,0.002678,0.000431,0.005524
4291000,0.0324,0.013523,0.002678,0.000431,0.005524
4292000,0.0324,0.013523,0.002678,0.000431,0.005641
4293000,0.0324,0.013523,0.002678,0.000431,0.005406
4294000,0.0324,0.013523,0.002678,0.000431,0.005524
4295000,0.0324,0.013523,0.002678,0.000431,0.005524
4296000,0.0324,0.013523,0.002678,0.000431,0.006111
4297000,0.0324,0.013523,0.002678,0.000431,0.005641
4298000,0.0324,0.013523,0.002678,0.000431,0.005289
4299000,0.0324,0.013523,0.002678,0.000431,0.005641
4300000,0.0324,0.013523,0.002678,0.000431,0.005171
4301000,0.0324,0.013523,0.002678,0.000431,0.005641
4302000,0.0324,0.013523,0.002678,0.000431,0.005524
4303000,0.0324,0.013523,0.002678,0.000431,0.005524
4304000,0.0324,0.013523,0.002678,0.000431,0.005994
4305000,0.0324,0.013523,0.002678,0.000431,0.005524
4306000,0.0324,0.013523,0.002678,0.000431,0.005641
4307000,0.0324,0.013523,0.002678,0.000431,0.005406
4308000,0.0324,0.013523,0.002678,0.000431,0.005759
4309000,0.0324,0.013523,0.002678,0.000431,0.005524
4310000,0.0324,0.013523,0.002678,0.000431,0.005876
4311000,0.0324,0.013523,0.002678,0.000431,0.005524
4312000,0.0324,0.013523,0.002678,0.000431,0.005759
4313000,0.0324,0.013523,0.002678,0.000431,0.005759
4314000,0.0324,0.013523,0.002678,0.000431,0.005876
4315000,0.0324,0.013523,0.002678,0.000431,0.005524
4316000,0.0324,0.013523,0.002678,0.000431,0.005406
4317000,0.0324,0.013523,0.002678,0.000431,0.004701
4318000,0.0324,0.013523,0.002678,0.000431,0.004936
4319000,0.0324,0.013523,0.002678,0.000431,0.004584
4320000,0.0324,0.013523,0.002678,0.000431,0.004466
4321000,0.0324,0.013523,0.002678,0.000431,0.004701
4322000,0.0324,0.013523,0.002678,0.000431,0.004701
4323000,0.0324,0.013523,0.002678,0.000431,0.005171
4324000,0.0324,0.013523,0.002678,0.000431,0.004701
4325000,0.0324,0.013523,0.002678,0.000431,0.004701
4326000,0.0324,0.013523,0.002678,0.000431,0.004819
4327000,0.0324,0.013523,0.002678,0.000431,0.004584
4328000,0.0324,0.013523,0.002678,0.000431,0.004349
4329000,0.0324,0.013523,0.002678,0.000431,0.004466
4330000,0.0324,0.013523,0.002678,0.000431,0.005171
4331000,0.0324,0.013523,0.002678,0.000431,0.005054
4332000,0.0324,0.013523,0.002678,0.000431,0.004936
4333000,0.0324,0.013523,0.002678,0.000431,0.004466
4334000,0.0324,0.013523,0.002678,0.000431,0.005054
4335000,0.0324,0.013523,0.002678,0.000431,0.005054
4336000,0.0324,0.013523,0.002678,0.000431,0.004701
4337000,0.0324,0.013523,0.002678,0.000431,0.004349
4338000,0.0324,0.013523,0.002678,0.000431,0.005054
4339000,0.0324,0.013523,0.002678,0.000431,0.004584
4340000,0.0324,0.013523,0.002678,0.000431,0.004936
4341000,0.0324,0.013523,0.002678,0.000431,0.004349
4342000,0.0324,0.013523,0.002678,0.000431,0.004819
4343000,0.0324,0.013523,0.002678,0.000431,0.005289
4344000,0.0324,0.013523,0.002678,0.000431,0.004936
4345000,0.0324,0.013523,0.002678,0.000431,0.004819
4346000,0.0324,0.013523,0.002678,0.000431,0.004701
4347000,0.0324,0.013523,0.002678,0.000431,0.004819
4348000,0.0324,0.013523,0.002678,0.000431,0.005289
4349000,0.0324,0.013523,0.002678,0.000431,0.005171
4350000,0.0324,0.013523,0.002678,0.000431,0.004819
4351000,0.0324,0.013523,0.002678,0.000431,0.004819
4352000,0.0324,0.013523,0.002678,0.000431,0.004584
4353000,0.0324,0.013523,0.002678,0.000431,0.004936
4354000,0.0324,0.013523,0.002678,0.000431,0.004819
4355000,0.0324,0.013523,0.002678,0.000431,0.005054
4356000,0.0324,0.013523,0.002678,0.000431,0.004819
4357000,0.0324,0.013523,0.002678,0.000431,0.004584
4358000,0.0324,0.013523,0.002678,0.000431,0.004936
4359000,0.0324,0.013523,0.002678,0.000431,0.005054
4360000,0.0324,0.013523,0.002678,0.000431,0.004701
4361000,0.0324,0.013523,0.002678,0.000431,0.004819
4362000,0.0324,0.013523,0.002678,0.000431,0.005641
4363000,0.0324,0.013523,0.002678,0.000431,0.004349
4364000,0.0324,0.013523,0.002678,0.000431,0.005054
4365000,0.0324,0.013523,0.002678,0.000431,0.004701
4366000,0.0324,0.013523,0.002678,0.000431,0.004819
4367000,0.0324,0.013523,0.002678,0.000431,0.004584
4368000,0.0324,0.013523,0.002678,0.000431,0.005054
4369000,0.0324,0.013523,0.002678,0.000431,0.004936
4370000,0.0324,0.013523,0.002678,0.000431,0.004936
4371000,0.0324,0.013523,0.002678,0.000431,0.004819
4372000,0.0324,0.013523,0.002678,0.000431,0.005171
4373000,0.0324,0.013523,0.002678,0.000431,0.004701
4374000,0.0324,0.013523,0.002678,0.000431,0.004936
4375000,0.0324,0.013523,0.002678,0.000431,0.004584
4376000,0.0324,0.013523,0.002678,0.000431,0.004936
4377000,0.0324,0.013523,0.002678,0.000431,0.004701
4378000,0.0324,0.013523,0.002678,0.000431,0.004936
4379000,0.0324,0.013523,0.002678,0.000431,0.004819
4380000,0.0324,0.013523,0.002678,0.000431,0.005289
4381000,0.0324,0.013523,0.002678,0.000431,0.004466
4382000,0.0324,0.013523,0.002678,0.000431,0.004936
4383000,0.0324,0.013523,0.002678,0.000431,0.004701
4384000,0.0324,0.013523,0.002678,0.000431,0.004819
4385000,0.0324,0.013523,0.002678,0.000431,0.005171
4386000,0.0324,0.013523,0.002678,0.000431,0.004701
4387000,0.0324,0.013523,0.002678,0.000431,0.005054
4388000,0.0324,0.013523,0.002678,0.000431,0.005054
4389000,0.0324,0.013523,0.002678,0.000431,0.004819
