Cycle,Area(mm^2),PeakDynamic(W),SubthresholdLeakage(W),GateLeakage(W),RunTimeDynamic(W)
43000000,0.0324,0.013523,0.002678,0.000431,0.000353
43001000,0.0324,0.013523,0.002678,0.000431,0.000118
43002000,0.0324,0.013523,0.002678,0.000431,0.000470
43003000,0.0324,0.013523,0.002678,0.000431,0.000353
43004000,0.0324,0.013523,0.002678,0.000431,0.000235
43005000,0.0324,0.013523,0.002678,0.000431,0.000353
43006000,0.0324,0.013523,0.002678,0.000431,0.000470
43007000,0.0324,0.013523,0.002678,0.000431,0.000235
43008000,0.0324,0.013523,0.002678,0.000431,0.000235
43009000,0.0324,0.013523,0.002678,0.000431,0.000470
43010000,0.0324,0.013523,0.002678,0.000431,0.000353
43011000,0.0324,0.013523,0.002678,0.000431,0.000235
43012000,0.0324,0.013523,0.002678,0.000431,0.000353
43013000,0.0324,0.013523,0.002678,0.000431,0.000470
43014000,0.0324,0.013523,0.002678,0.000431,0.000235
43015000,0.0324,0.013523,0.002678,0.000431,0.000235
43016000,0.0324,0.013523,0.002678,0.000431,0.000470
43017000,0.0324,0.013523,0.002678,0.000431,0.000353
43018000,0.0324,0.013523,0.002678,0.000431,0.000235
43019000,0.0324,0.013523,0.002678,0.000431,0.000353
43020000,0.0324,0.013523,0.002678,0.000431,0.000470
43021000,0.0324,0.013523,0.002678,0.000431,0.000235
43022000,0.0324,0.013523,0.002678,0.000431,0.000235
43023000,0.0324,0.013523,0.002678,0.000431,0.000470
43024000,0.0324,0.013523,0.002678,0.000431,0.000353
43025000,0.0324,0.013523,0.002678,0.000431,0.000235
43026000,0.0324,0.013523,0.002678,0.000431,0.000353
43027000,0.0324,0.013523,0.002678,0.000431,0.000470
43028000,0.0324,0.013523,0.002678,0.000431,0.000235
43029000,0.0324,0.013523,0.002678,0.000431,0.000235
43030000,0.0324,0.013523,0.002678,0.000431,0.000470
43031000,0.0324,0.013523,0.002678,0.000431,0.000353
43032000,0.0324,0.013523,0.002678,0.000431,0.000235
43033000,0.0324,0.013523,0.002678,0.000431,0.000353
43034000,0.0324,0.013523,0.002678,0.000431,0.000470
43035000,0.0324,0.013523,0.002678,0.000431,0.000118
43036000,0.0324,0.013523,0.002678,0.000431,0.000353
43037000,0.0324,0.013523,0.002678,0.000431,0.000470
43038000,0.0324,0.013523,0.002678,0.000431,0.000353
43039000,0.0324,0.013523,0.002678,0.000431,0.000235
43040000,0.0324,0.013523,0.002678,0.000431,0.000353
43041000,0.0324,0.013523,0.002678,0.000431,0.000470
43042000,0.0324,0.013523,0.002678,0.000431,0.000118
43043000,0.0324,0.013523,0.002678,0.000431,0.000353
43044000,0.0324,0.013523,0.002678,0.000431,0.000470
43045000,0.0324,0.013523,0.002678,0.000431,0.000353
43046000,0.0324,0.013523,0.002678,0.000431,0.000235
43047000,0.0324,0.013523,0.002678,0.000431,0.000353
43048000,0.0324,0.013523,0.002678,0.000431,0.000470
43049000,0.0324,0.013523,0.002678,0.000431,0.000118
43050000,0.0324,0.013523,0.002678,0.000431,0.000353
43051000,0.0324,0.013523,0.002678,0.000431,0.000470
43052000,0.0324,0.013523,0.002678,0.000431,0.000353
43053000,0.0324,0.013523,0.002678,0.000431,0.000235
43054000,0.0324,0.013523,0.002678,0.000431,0.000353
43055000,0.0324,0.013523,0.002678,0.000431,0.000353
43056000,0.0324,0.013523,0.002678,0.000431,0.000235
43057000,0.0324,0.013523,0.002678,0.000431,0.000353
43058000,0.0324,0.013523,0.002678,0.000431,0.000470
43059000,0.0324,0.013523,0.002678,0.000431,0.000353
43060000,0.0324,0.013523,0.002678,0.000431,0.000235
43061000,0.0324,0.013523,0.002678,0.000431,0.000353
43062000,0.0324,0.013523,0.002678,0.000431,0.000353
43063000,0.0324,0.013523,0.002678,0.000431,0.000235
43064000,0.0324,0.013523,0.002678,0.000431,0.000353
43065000,0.0324,0.013523,0.002678,0.000431,0.000470
43066000,0.0324,0.013523,0.002678,0.000431,0.000353
43067000,0.0324,0.013523,0.002678,0.000431,0.000235
43068000,0.0324,0.013523,0.002678,0.000431,0.000353
43069000,0.0324,0.013523,0.002678,0.000431,0.000353
43070000,0.0324,0.013523,0.002678,0.000431,0.000235
43071000,0.0324,0.013523,0.002678,0.000431,0.000353
43072000,0.0324,0.013523,0.002678,0.000431,0.000470
43073000,0.0324,0.013523,0.002678,0.000431,0.000353
43074000,0.0324,0.013523,0.002678,0.000431,0.000235
43075000,0.0324,0.013523,0.002678,0.000431,0.000353
43076000,0.0324,0.013523,0.002678,0.000431,0.000353
43077000,0.0324,0.013523,0.002678,0.000431,0.000235
43078000,0.0324,0.013523,0.002678,0.000431,0.000353
43079000,0.0324,0.013523,0.002678,0.000431,0.000470
43080000,0.0324,0.013523,0.002678,0.000431,0.000353
43081000,0.0324,0.013523,0.002678,0.000431,0.000235
43082000,0.0324,0.013523,0.002678,0.000431,0.000353
43083000,0.0324,0.013523,0.002678,0.000431,0.000353
43084000,0.0324,0.013523,0.002678,0.000431,0.000235
43085000,0.0324,0.013523,0.002678,0.000431,0.000353
43086000,0.0324,0.013523,0.002678,0.000431,0.000470
43087000,0.0324,0.013523,0.002678,0.000431,0.000353
43088000,0.0324,0.013523,0.002678,0.000431,0.000235
43089000,0.0324,0.013523,0.002678,0.000431,0.000353
43090000,0.0324,0.013523,0.002678,0.000431,0.000353
43091000,0.0324,0.013523,0.002678,0.000431,0.000235
43092000,0.0324,0.013523,0.002678,0.000431,0.000353
43093000,0.0324,0.013523,0.002678,0.000431,0.000470
43094000,0.0324,0.013523,0.002678,0.000431,0.000353
43095000,0.0324,0.013523,0.002678,0.000431,0.000235
43096000,0.0324,0.013523,0.002678,0.000431,0.000353
43097000,0.0324,0.013523,0.002678,0.000431,0.000353
43098000,0.0324,0.013523,0.002678,0.000431,0.000235
43099000,0.0324,0.013523,0.002678,0.000431,0.000353
43100000,0.0324,0.013523,0.002678,0.000431,0.000470
43101000,0.0324,0.013523,0.002678,0.000431,0.000353
43102000,0.0324,0.013523,0.002678,0.000431,0.000235
43103000,0.0324,0.013523,0.002678,0.000431,0.000353
43104000,0.0324,0.013523,0.002678,0.000431,0.000353
43105000,0.0324,0.013523,0.002678,0.000431,0.000235
43106000,0.0324,0.013523,0.002678,0.000431,0.000353
43107000,0.0324,0.013523,0.002678,0.000431,0.000470
43108000,0.0324,0.013523,0.002678,0.000431,0.000353
43109000,0.0324,0.013523,0.002678,0.000431,0.000118
43110000,0.0324,0.013523,0.002678,0.000431,0.000470
43111000,0.0324,0.013523,0.002678,0.000431,0.000353
43112000,0.0324,0.013523,0.002678,0.000431,0.000235
43113000,0.0324,0.013523,0.002678,0.000431,0.000353
43114000,0.0324,0.013523,0.002678,0.000431,0.000470
43115000,0.0324,0.013523,0.002678,0.000431,0.000353
43116000,0.0324,0.013523,0.002678,0.000431,0.000118
43117000,0.0324,0.013523,0.002678,0.000431,0.000470
43118000,0.0324,0.013523,0.002678,0.000431,0.000353
43119000,0.0324,0.013523,0.002678,0.000431,0.000235
43120000,0.0324,0.013523,0.002678,0.000431,0.000353
43121000,0.0324,0.013523,0.002678,0.000431,0.000470
43122000,0.0324,0.013523,0.002678,0.000431,0.000353
43123000,0.0324,0.013523,0.002678,0.000431,0.000118
43124000,0.0324,0.013523,0.002678,0.000431,0.000470
43125000,0.0324,0.013523,0.002678,0.000431,0.000353
43126000,0.0324,0.013523,0.002678,0.000431,0.000235
43127000,0.0324,0.013523,0.002678,0.000431,0.000353
43128000,0.0324,0.013523,0.002678,0.000431,0.000470
43129000,0.0324,0.013523,0.002678,0.000431,0.000235
43130000,0.0324,0.013523,0.002678,0.000431,0.000235
43131000,0.0324,0.013523,0.002678,0.000431,0.000470
43132000,0.0324,0.013523,0.002678,0.000431,0.000353
43133000,0.0324,0.013523,0.002678,0.000431,0.000235
43134000,0.0324,0.013523,0.002678,0.000431,0.000353
43135000,0.0324,0.013523,0.002678,0.000431,0.000470
43136000,0.0324,0.013523,0.002678,0.000431,0.000235
43137000,0.0324,0.013523,0.002678,0.000431,0.000235
43138000,0.0324,0.013523,0.002678,0.000431,0.000470
43139000,0.0324,0.013523,0.002678,0.000431,0.000353
43140000,0.0324,0.013523,0.002678,0.000431,0.000235
43141000,0.0324,0.013523,0.002678,0.000431,0.000353
43142000,0.0324,0.013523,0.002678,0.000431,0.000470
43143000,0.0324,0.013523,0.002678,0.000431,0.000235
43144000,0.0324,0.013523,0.002678,0.000431,0.000235
43145000,0.0324,0.013523,0.002678,0.000431,0.000470
43146000,0.0324,0.013523,0.002678,0.000431,0.000353
43147000,0.0324,0.013523,0.002678,0.000431,0.000235
43148000,0.0324,0.013523,0.002678,0.000431,0.000353
43149000,0.0324,0.013523,0.002678,0.000431,0.000470
43150000,0.0324,0.013523,0.002678,0.000431,0.000118
43151000,0.0324,0.013523,0.002678,0.000431,0.000353
43152000,0.0324,0.013523,0.002678,0.000431,0.000470
43153000,0.0324,0.013523,0.002678,0.000431,0.000353
43154000,0.0324,0.013523,0.002678,0.000431,0.000235
43155000,0.0324,0.013523,0.002678,0.000431,0.000353
43156000,0.0324,0.013523,0.002678,0.000431,0.000353
43157000,0.0324,0.013523,0.002678,0.000431,0.000235
43158000,0.0324,0.013523,0.002678,0.000431,0.000353
43159000,0.0324,0.013523,0.002678,0.000431,0.000470
43160000,0.0324,0.013523,0.002678,0.000431,0.000353
43161000,0.0324,0.013523,0.002678,0.000431,0.000235
43162000,0.0324,0.013523,0.002678,0.000431,0.000353
43163000,0.0324,0.013523,0.002678,0.000431,0.000353
43164000,0.0324,0.013523,0.002678,0.000431,0.000235
43165000,0.0324,0.013523,0.002678,0.000431,0.000353
43166000,0.0324,0.013523,0.002678,0.000431,0.000470
43167000,0.0324,0.013523,0.002678,0.000431,0.000353
43168000,0.0324,0.013523,0.002678,0.000431,0.000235
43169000,0.0324,0.013523,0.002678,0.000431,0.000353
43170000,0.0324,0.013523,0.002678,0.000431,0.000353
43171000,0.0324,0.013523,0.002678,0.000431,0.000235
43172000,0.0324,0.013523,0.002678,0.000431,0.000353
43173000,0.0324,0.013523,0.002678,0.000431,0.000470
43174000,0.0324,0.013523,0.002678,0.000431,0.000353
43175000,0.0324,0.013523,0.002678,0.000431,0.000118
43176000,0.0324,0.013523,0.002678,0.000431,0.000470
43177000,0.0324,0.013523,0.002678,0.000431,0.000353
43178000,0.0324,0.013523,0.002678,0.000431,0.000235
43179000,0.0324,0.013523,0.002678,0.000431,0.000353
43180000,0.0324,0.013523,0.002678,0.000431,0.000470
43181000,0.0324,0.013523,0.002678,0.000431,0.000235
43182000,0.0324,0.013523,0.002678,0.000431,0.000235
43183000,0.0324,0.013523,0.002678,0.000431,0.000470
43184000,0.0324,0.013523,0.002678,0.000431,0.000353
43185000,0.0324,0.013523,0.002678,0.000431,0.000235
43186000,0.0324,0.013523,0.002678,0.000431,0.000353
43187000,0.0324,0.013523,0.002678,0.000431,0.000470
43188000,0.0324,0.013523,0.002678,0.000431,0.000235
43189000,0.0324,0.013523,0.002678,0.000431,0.000235
43190000,0.0324,0.013523,0.002678,0.000431,0.000470
43191000,0.0324,0.013523,0.002678,0.000431,0.000353
43192000,0.0324,0.013523,0.002678,0.000431,0.000235
43193000,0.0324,0.013523,0.002678,0.000431,0.000353
43194000,0.0324,0.013523,0.002678,0.000431,0.000470
43195000,0.0324,0.013523,0.002678,0.000431,0.000118
43196000,0.0324,0.013523,0.002678,0.000431,0.000353
43197000,0.0324,0.013523,0.002678,0.000431,0.000470
43198000,0.0324,0.013523,0.002678,0.000431,0.000353
43199000,0.0324,0.013523,0.002678,0.000431,0.000235
43200000,0.0324,0.013523,0.002678,0.000431,0.000353
43201000,0.0324,0.013523,0.002678,0.000431,0.000353
43202000,0.0324,0.013523,0.002678,0.000431,0.000235
43203000,0.0324,0.013523,0.002678,0.000431,0.000353
43204000,0.0324,0.013523,0.002678,0.000431,0.000470
43205000,0.0324,0.013523,0.002678,0.000431,0.000353
43206000,0.0324,0.013523,0.002678,0.000431,0.000235
43207000,0.0324,0.013523,0.002678,0.000431,0.000353
43208000,0.0324,0.013523,0.002678,0.000431,0.000353
43209000,0.0324,0.013523,0.002678,0.000431,0.000235
43210000,0.0324,0.013523,0.002678,0.000431,0.000353
43211000,0.0324,0.013523,0.002678,0.000431,0.000470
43212000,0.0324,0.013523,0.002678,0.000431,0.000353
43213000,0.0324,0.013523,0.002678,0.000431,0.000235
43214000,0.0324,0.013523,0.002678,0.000431,0.000353
43215000,0.0324,0.013523,0.002678,0.000431,0.000353
43216000,0.0324,0.013523,0.002678,0.000431,0.000235
43217000,0.0324,0.013523,0.002678,0.000431,0.000353
43218000,0.0324,0.013523,0.002678,0.000431,0.000470
43219000,0.0324,0.013523,0.002678,0.000431,0.000353
43220000,0.0324,0.013523,0.002678,0.000431,0.000118
43221000,0.0324,0.013523,0.002678,0.000431,0.000470
43222000,0.0324,0.013523,0.002678,0.000431,0.000353
43223000,0.0324,0.013523,0.002678,0.000431,0.000235
43224000,0.0324,0.013523,0.002678,0.000431,0.000353
43225000,0.0324,0.013523,0.002678,0.000431,0.000470
43226000,0.0324,0.013523,0.002678,0.000431,0.000235
43227000,0.0324,0.013523,0.002678,0.000431,0.000235
43228000,0.0324,0.013523,0.002678,0.000431,0.000470
43229000,0.0324,0.013523,0.002678,0.000431,0.000353
43230000,0.0324,0.013523,0.002678,0.000431,0.000235
43231000,0.0324,0.013523,0.002678,0.000431,0.000353
43232000,0.0324,0.013523,0.002678,0.000431,0.000470
43233000,0.0324,0.013523,0.002678,0.000431,0.000118
43234000,0.0324,0.013523,0.002678,0.000431,0.000353
43235000,0.0324,0.013523,0.002678,0.000431,0.000470
43236000,0.0324,0.013523,0.002678,0.000431,0.000353
43237000,0.0324,0.013523,0.002678,0.000431,0.000235
43238000,0.0324,0.013523,0.002678,0.000431,0.000353
43239000,0.0324,0.013523,0.002678,0.000431,0.000470
43240000,0.0324,0.013523,0.002678,0.000431,0.000118
43241000,0.0324,0.013523,0.002678,0.000431,0.000353
43242000,0.0324,0.013523,0.002678,0.000431,0.000470
43243000,0.0324,0.013523,0.002678,0.000431,0.000353
43244000,0.0324,0.013523,0.002678,0.000431,0.000235
43245000,0.0324,0.013523,0.002678,0.000431,0.000353
43246000,0.0324,0.013523,0.002678,0.000431,0.000353
43247000,0.0324,0.013523,0.002678,0.000431,0.000235
43248000,0.0324,0.013523,0.002678,0.000431,0.000353
43249000,0.0324,0.013523,0.002678,0.000431,0.000470
43250000,0.0324,0.013523,0.002678,0.000431,0.000353
43251000,0.0324,0.013523,0.002678,0.000431,0.000235
43252000,0.0324,0.013523,0.002678,0.000431,0.000353
43253000,0.0324,0.013523,0.002678,0.000431,0.000353
43254000,0.0324,0.013523,0.002678,0.000431,0.000235
43255000,0.0324,0.013523,0.002678,0.000431,0.000353
43256000,0.0324,0.013523,0.002678,0.000431,0.000470
43257000,0.0324,0.013523,0.002678,0.000431,0.000353
43258000,0.0324,0.013523,0.002678,0.000431,0.000118
43259000,0.0324,0.013523,0.002678,0.000431,0.000470
43260000,0.0324,0.013523,0.002678,0.000431,0.000353
43261000,0.0324,0.013523,0.002678,0.000431,0.000235
43262000,0.0324,0.013523,0.002678,0.000431,0.000353
43263000,0.0324,0.013523,0.002678,0.000431,0.000470
43264000,0.0324,0.013523,0.002678,0.000431,0.000235
43265000,0.0324,0.013523,0.002678,0.000431,0.000235
43266000,0.0324,0.013523,0.002678,0.000431,0.000470
43267000,0.0324,0.013523,0.002678,0.000431,0.000353
43268000,0.0324,0.013523,0.002678,0.000431,0.000235
43269000,0.0324,0.013523,0.002678,0.000431,0.000353
43270000,0.0324,0.013523,0.002678,0.000431,0.000470
43271000,0.0324,0.013523,0.002678,0.000431,0.000235
43272000,0.0324,0.013523,0.002678,0.000431,0.000235
43273000,0.0324,0.013523,0.002678,0.000431,0.000470
43274000,0.0324,0.013523,0.002678,0.000431,0.000353
43275000,0.0324,0.013523,0.002678,0.000431,0.000235
43276000,0.0324,0.013523,0.002678,0.000431,0.000353
43277000,0.0324,0.013523,0.002678,0.000431,0.000470
43278000,0.0324,0.013523,0.002678,0.000431,0.000118
43279000,0.0324,0.013523,0.002678,0.000431,0.000353
43280000,0.0324,0.013523,0.002678,0.000431,0.000470
43281000,0.0324,0.013523,0.002678,0.000431,0.000353
43282000,0.0324,0.013523,0.002678,0.000431,0.000235
43283000,0.0324,0.013523,0.002678,0.000431,0.000353
43284000,0.0324,0.013523,0.002678,0.000431,0.000353
43285000,0.0324,0.013523,0.002678,0.000431,0.000235
43286000,0.0324,0.013523,0.002678,0.000431,0.000353
43287000,0.0324,0.013523,0.002678,0.000431,0.000470
43288000,0.0324,0.013523,0.002678,0.000431,0.000353
43289000,0.0324,0.013523,0.002678,0.000431,0.000235
43290000,0.0324,0.013523,0.002678,0.000431,0.000353
43291000,0.0324,0.013523,0.002678,0.000431,0.000353
43292000,0.0324,0.013523,0.002678,0.000431,0.000235
43293000,0.0324,0.013523,0.002678,0.000431,0.000353
43294000,0.0324,0.013523,0.002678,0.000431,0.000470
43295000,0.0324,0.013523,0.002678,0.000431,0.000353
43296000,0.0324,0.013523,0.002678,0.000431,0.000235
43297000,0.0324,0.013523,0.002678,0.000431,0.000353
43298000,0.0324,0.013523,0.002678,0.000431,0.000353
43299000,0.0324,0.013523,0.002678,0.000431,0.000235
43300000,0.0324,0.013523,0.002678,0.000431,0.000353
43301000,0.0324,0.013523,0.002678,0.000431,0.000470
43302000,0.0324,0.013523,0.002678,0.000431,0.000353
43303000,0.0324,0.013523,0.002678,0.000431,0.000235
43304000,0.0324,0.013523,0.002678,0.000431,0.000353
43305000,0.0324,0.013523,0.002678,0.000431,0.000353
43306000,0.0324,0.013523,0.002678,0.000431,0.000235
43307000,0.0324,0.013523,0.002678,0.000431,0.000353
43308000,0.0324,0.013523,0.002678,0.000431,0.000470
43309000,0.0324,0.013523,0.002678,0.000431,0.000353
43310000,0.0324,0.013523,0.002678,0.000431,0.000235
43311000,0.0324,0.013523,0.002678,0.000431,0.000353
43312000,0.0324,0.013523,0.002678,0.000431,0.000353
43313000,0.0324,0.013523,0.002678,0.000431,0.000235
43314000,0.0324,0.013523,0.002678,0.000431,0.000353
43315000,0.0324,0.013523,0.002678,0.000431,0.000470
43316000,0.0324,0.013523,0.002678,0.000431,0.000353
43317000,0.0324,0.013523,0.002678,0.000431,0.000235
43318000,0.0324,0.013523,0.002678,0.000431,0.000353
43319000,0.0324,0.013523,0.002678,0.000431,0.000353
43320000,0.0324,0.013523,0.002678,0.000431,0.000235
43321000,0.0324,0.013523,0.002678,0.000431,0.000353
43322000,0.0324,0.013523,0.002678,0.000431,0.000470
43323000,0.0324,0.013523,0.002678,0.000431,0.000353
43324000,0.0324,0.013523,0.002678,0.000431,0.000235
43325000,0.0324,0.013523,0.002678,0.000431,0.000353
43326000,0.0324,0.013523,0.002678,0.000431,0.000353
43327000,0.0324,0.013523,0.002678,0.000431,0.000235
43328000,0.0324,0.013523,0.002678,0.000431,0.000353
43329000,0.0324,0.013523,0.002678,0.000431,0.000470
43330000,0.0324,0.013523,0.002678,0.000431,0.000353
43331000,0.0324,0.013523,0.002678,0.000431,0.000118
43332000,0.0324,0.013523,0.002678,0.000431,0.000470
43333000,0.0324,0.013523,0.002678,0.000431,0.000353
43334000,0.0324,0.013523,0.002678,0.000431,0.000235
43335000,0.0324,0.013523,0.002678,0.000431,0.000353
43336000,0.0324,0.013523,0.002678,0.000431,0.000470
43337000,0.0324,0.013523,0.002678,0.000431,0.000353
43338000,0.0324,0.013523,0.002678,0.000431,0.000118
43339000,0.0324,0.013523,0.002678,0.000431,0.000470
43340000,0.0324,0.013523,0.002678,0.000431,0.000353
43341000,0.0324,0.013523,0.002678,0.000431,0.000235
43342000,0.0324,0.013523,0.002678,0.000431,0.000353
43343000,0.0324,0.013523,0.002678,0.000431,0.000470
43344000,0.0324,0.013523,0.002678,0.000431,0.000353
43345000,0.0324,0.013523,0.002678,0.000431,0.000118
43346000,0.0324,0.013523,0.002678,0.000431,0.000470
43347000,0.0324,0.013523,0.002678,0.000431,0.000353
43348000,0.0324,0.013523,0.002678,0.000431,0.000235
43349000,0.0324,0.013523,0.002678,0.000431,0.000353
43350000,0.0324,0.013523,0.002678,0.000431,0.000470
43351000,0.0324,0.013523,0.002678,0.000431,0.000353
43352000,0.0324,0.013523,0.002678,0.000431,0.000118
43353000,0.0324,0.013523,0.002678,0.000431,0.000470
43354000,0.0324,0.013523,0.002678,0.000431,0.000353
43355000,0.0324,0.013523,0.002678,0.000431,0.000235
43356000,0.0324,0.013523,0.002678,0.000431,0.000353
43357000,0.0324,0.013523,0.002678,0.000431,0.000470
43358000,0.0324,0.013523,0.002678,0.000431,0.000235
43359000,0.0324,0.013523,0.002678,0.000431,0.000235
43360000,0.0324,0.013523,0.002678,0.000431,0.000470
43361000,0.0324,0.013523,0.002678,0.000431,0.000353
43362000,0.0324,0.013523,0.002678,0.000431,0.000235
43363000,0.0324,0.013523,0.002678,0.000431,0.000353
43364000,0.0324,0.013523,0.002678,0.000431,0.000470
43365000,0.0324,0.013523,0.002678,0.000431,0.000235
43366000,0.0324,0.013523,0.002678,0.000431,0.000235
43367000,0.0324,0.013523,0.002678,0.000431,0.000470
43368000,0.0324,0.013523,0.002678,0.000431,0.000353
43369000,0.0324,0.013523,0.002678,0.000431,0.000235
43370000,0.0324,0.013523,0.002678,0.000431,0.000353
43371000,0.0324,0.013523,0.002678,0.000431,0.000470
43372000,0.0324,0.013523,0.002678,0.000431,0.000235
43373000,0.0324,0.013523,0.002678,0.000431,0.000235
43374000,0.0324,0.013523,0.002678,0.000431,0.000470
43375000,0.0324,0.013523,0.002678,0.000431,0.000353
43376000,0.0324,0.013523,0.002678,0.000431,0.000235
43377000,0.0324,0.013523,0.002678,0.000431,0.000353
43378000,0.0324,0.013523,0.002678,0.000431,0.000470
43379000,0.0324,0.013523,0.002678,0.000431,0.000235
43380000,0.0324,0.013523,0.002678,0.000431,0.000235
43381000,0.0324,0.013523,0.002678,0.000431,0.000470
