Cycle,Area(mm^2),PeakDynamic(W),SubthresholdLeakage(W),GateLeakage(W),RunTimeDynamic(W)
43000000,0.0324,0.013523,0.002678,0.000431,0.000823
43001000,0.0324,0.013523,0.002678,0.000431,0.000940
43002000,0.0324,0.013523,0.002678,0.000431,0.000940
43003000,0.0324,0.013523,0.002678,0.000431,0.000823
43004000,0.0324,0.013523,0.002678,0.000431,0.000823
43005000,0.0324,0.013523,0.002678,0.000431,0.000940
43006000,0.0324,0.013523,0.002678,0.000431,0.000940
43007000,0.0324,0.013523,0.002678,0.000431,0.000823
43008000,0.0324,0.013523,0.002678,0.000431,0.002351
43009000,0.0324,0.013523,0.002678,0.000431,0.377736
43010000,0.0324,0.013523,0.002678,0.000431,0.689538
43011000,0.0324,0.013523,0.002678,0.000431,0.139153
43012000,0.0324,0.013523,0.002678,0.000431,0.133512
43013000,0.0324,0.013523,0.002678,0.000431,0.166655
43014000,0.0324,0.013523,0.002678,0.000431,0.631479
43015000,0.0324,0.013523,0.002678,0.000431,0.251980
43016000,0.0324,0.013523,0.002678,0.000431,0.257152
43017000,0.0324,0.013523,0.002678,0.000431,0.218367
43018000,0.0324,0.013523,0.002678,0.000431,0.142679
43019000,0.0324,0.013523,0.002678,0.000431,0.158663
43020000,0.0324,0.013523,0.002678,0.000431,0.140094
43021000,0.0324,0.013523,0.002678,0.000431,0.462944
43022000,0.0324,0.013523,0.002678,0.000431,0.058647
43023000,0.0324,0.013523,0.002678,0.000431,0.051007
43024000,0.0324,0.013523,0.002678,0.000431,0.036199
43025000,0.0324,0.013523,0.002678,0.000431,0.027737
43026000,0.0324,0.013523,0.002678,0.000431,0.027149
43027000,0.0324,0.013523,0.002678,0.000431,0.021978
43028000,0.0324,0.013523,0.002678,0.000431,0.019980
43029000,0.0324,0.013523,0.002678,0.000431,0.016454
43030000,0.0324,0.013523,0.002678,0.000431,0.016924
43031000,0.0324,0.013523,0.002678,0.000431,0.014221
43032000,0.0324,0.013523,0.002678,0.000431,0.012340
43033000,0.0324,0.013523,0.002678,0.000431,0.014809
43034000,0.0324,0.013523,0.002678,0.000431,0.008227
43035000,0.0324,0.013523,0.002678,0.000431,0.007639
43036000,0.0324,0.013523,0.002678,0.000431,0.006111
43037000,0.0324,0.013523,0.002678,0.000431,0.005994
43038000,0.0324,0.013523,0.002678,0.000431,0.009637
43039000,0.0324,0.013523,0.002678,0.000431,0.008227
43040000,0.0324,0.013523,0.002678,0.000431,0.002586
43041000,0.0324,0.013523,0.002678,0.000431,0.002468
43042000,0.0324,0.013523,0.002678,0.000431,0.002703
43043000,0.0324,0.013523,0.002678,0.000431,0.003643
43044000,0.0324,0.013523,0.002678,0.000431,0.003056
43045000,0.0324,0.013523,0.002678,0.000431,0.001645
43046000,0.0324,0.013523,0.002678,0.000431,0.001763
43047000,0.0324,0.013523,0.002678,0.000431,0.001645
43048000,0.0324,0.013523,0.002678,0.000431,0.001645
43049000,0.0324,0.013523,0.002678,0.000431,0.003408
43050000,0.0324,0.013523,0.002678,0.000431,0.000940
43051000,0.0324,0.013523,0.002678,0.000431,0.000823
43052000,0.0324,0.013523,0.002678,0.000431,0.000823
43053000,0.0324,0.013523,0.002678,0.000431,0.000940
43054000,0.0324,0.013523,0.002678,0.000431,0.000940
43055000,0.0324,0.013523,0.002678,0.000431,0.000823
43056000,0.0324,0.013523,0.002678,0.000431,0.000823
43057000,0.0324,0.013523,0.002678,0.000431,0.000940
43058000,0.0324,0.013523,0.002678,0.000431,0.000940
43059000,0.0324,0.013523,0.002678,0.000431,0.000823
43060000,0.0324,0.013523,0.002678,0.000431,0.000823
43061000,0.0324,0.013523,0.002678,0.000431,0.000940
43062000,0.0324,0.013523,0.002678,0.000431,0.000823
43063000,0.0324,0.013523,0.002678,0.000431,0.000940
43064000,0.0324,0.013523,0.002678,0.000431,0.000823
43065000,0.0324,0.013523,0.002678,0.000431,0.000940
43066000,0.0324,0.013523,0.002678,0.000431,0.000940
43067000,0.0324,0.013523,0.002678,0.000431,0.001880
43068000,0.0324,0.013523,0.002678,0.000431,0.327434
43069000,0.0324,0.013523,0.002678,0.000431,0.649931
43070000,0.0324,0.013523,0.002678,0.000431,0.227887
43071000,0.0324,0.013523,0.002678,0.000431,0.132572
43072000,0.0324,0.013523,0.002678,0.000431,0.137743
43073000,0.0324,0.013523,0.002678,0.000431,0.591754
43074000,0.0324,0.013523,0.002678,0.000431,0.274428
43075000,0.0324,0.013523,0.002678,0.000431,0.247514
43076000,0.0324,0.013523,0.002678,0.000431,0.235291
43077000,0.0324,0.013523,0.002678,0.000431,0.150789
43078000,0.0324,0.013523,0.002678,0.000431,0.174294
43079000,0.0324,0.013523,0.002678,0.000431,0.103777
43080000,0.0324,0.013523,0.002678,0.000431,0.479045
43081000,0.0324,0.013523,0.002678,0.000431,0.069459
43082000,0.0324,0.013523,0.002678,0.000431,0.048657
43083000,0.0324,0.013523,0.002678,0.000431,0.042780
43084000,0.0324,0.013523,0.002678,0.000431,0.040547
43085000,0.0324,0.013523,0.002678,0.000431,0.028794
43086000,0.0324,0.013523,0.002678,0.000431,0.030322
43087000,0.0324,0.013523,0.002678,0.000431,0.023976
43088000,0.0324,0.013523,0.002678,0.000431,0.021155
43089000,0.0324,0.013523,0.002678,0.000431,0.015749
43090000,0.0324,0.013523,0.002678,0.000431,0.012693
43091000,0.0324,0.013523,0.002678,0.000431,0.009285
43092000,0.0324,0.013523,0.002678,0.000431,0.009285
43093000,0.0324,0.013523,0.002678,0.000431,0.010578
43094000,0.0324,0.013523,0.002678,0.000431,0.006582
43095000,0.0324,0.013523,0.002678,0.000431,0.005054
43096000,0.0324,0.013523,0.002678,0.000431,0.005406
43097000,0.0324,0.013523,0.002678,0.000431,0.007052
43098000,0.0324,0.013523,0.002678,0.000431,0.003996
43099000,0.0324,0.013523,0.002678,0.000431,0.004466
43100000,0.0324,0.013523,0.002678,0.000431,0.004231
43101000,0.0324,0.013523,0.002678,0.000431,0.004466
43102000,0.0324,0.013523,0.002678,0.000431,0.005641
43103000,0.0324,0.013523,0.002678,0.000431,0.004466
43104000,0.0324,0.013523,0.002678,0.000431,0.003996
43105000,0.0324,0.013523,0.002678,0.000431,0.002468
43106000,0.0324,0.013523,0.002678,0.000431,0.002586
43107000,0.0324,0.013523,0.002678,0.000431,0.002586
43108000,0.0324,0.013523,0.002678,0.000431,0.002703
43109000,0.0324,0.013523,0.002678,0.000431,0.002703
43110000,0.0324,0.013523,0.002678,0.000431,0.002233
43111000,0.0324,0.013523,0.002678,0.000431,0.002821
43112000,0.0324,0.013523,0.002678,0.000431,0.002703
43113000,0.0324,0.013523,0.002678,0.000431,0.002468
43114000,0.0324,0.013523,0.002678,0.000431,0.002468
43115000,0.0324,0.013523,0.002678,0.000431,0.002703
43116000,0.0324,0.013523,0.002678,0.000431,0.002703
43117000,0.0324,0.013523,0.002678,0.000431,0.002351
43118000,0.0324,0.013523,0.002678,0.000431,0.002703
43119000,0.0324,0.013523,0.002678,0.000431,0.002586
43120000,0.0324,0.013523,0.002678,0.000431,0.002703
43121000,0.0324,0.013523,0.002678,0.000431,0.002351
43122000,0.0324,0.013523,0.002678,0.000431,0.002703
43123000,0.0324,0.013523,0.002678,0.000431,0.002586
43124000,0.0324,0.013523,0.002678,0.000431,0.002703
43125000,0.0324,0.013523,0.002678,0.000431,0.002586
43126000,0.0324,0.013523,0.002678,0.000431,0.002468
43127000,0.0324,0.013523,0.002678,0.000431,0.004349
43128000,0.0324,0.013523,0.002678,0.000431,0.001528
43129000,0.0324,0.013523,0.002678,0.000431,0.001763
43130000,0.0324,0.013523,0.002678,0.000431,0.001763
43131000,0.0324,0.013523,0.002678,0.000431,0.001645
43132000,0.0324,0.013523,0.002678,0.000431,0.001763
43133000,0.0324,0.013523,0.002678,0.000431,0.001645
43134000,0.0324,0.013523,0.002678,0.000431,0.001880
43135000,0.0324,0.013523,0.002678,0.000431,0.001763
43136000,0.0324,0.013523,0.002678,0.000431,0.001528
43137000,0.0324,0.013523,0.002678,0.000431,0.001763
43138000,0.0324,0.013523,0.002678,0.000431,0.001763
43139000,0.0324,0.013523,0.002678,0.000431,0.001528
43140000,0.0324,0.013523,0.002678,0.000431,0.001763
43141000,0.0324,0.013523,0.002678,0.000431,0.002938
43142000,0.0324,0.013523,0.002678,0.000431,0.000940
43143000,0.0324,0.013523,0.002678,0.000431,0.000823
43144000,0.0324,0.013523,0.002678,0.000431,0.013633
43145000,0.0324,0.013523,0.002678,0.000431,0.496909
43146000,0.0324,0.013523,0.002678,0.000431,0.587523
43147000,0.0324,0.013523,0.002678,0.000431,0.133512
43148000,0.0324,0.013523,0.002678,0.000431,0.133394
43149000,0.0324,0.013523,0.002678,0.000431,0.400536
43150000,0.0324,0.013523,0.002678,0.000431,0.379734
43151000,0.0324,0.013523,0.002678,0.000431,0.260560
43152000,0.0324,0.013523,0.002678,0.000431,0.300872
43153000,0.0324,0.013523,0.002678,0.000431,0.180053
43154000,0.0324,0.013523,0.002678,0.000431,0.143149
43155000,0.0324,0.013523,0.002678,0.000431,0.135863
43156000,0.0324,0.013523,0.002678,0.000431,0.235997
43157000,0.0324,0.013523,0.002678,0.000431,0.366218
43158000,0.0324,0.013523,0.002678,0.000431,0.053828
43159000,0.0324,0.013523,0.002678,0.000431,0.039254
43160000,0.0324,0.013523,0.002678,0.000431,0.040665
43161000,0.0324,0.013523,0.002678,0.000431,0.030792
43162000,0.0324,0.013523,0.002678,0.000431,0.032438
43163000,0.0324,0.013523,0.002678,0.000431,0.021508
43164000,0.0324,0.013523,0.002678,0.000431,0.018452
43165000,0.0324,0.013523,0.002678,0.000431,0.014221
43166000,0.0324,0.013523,0.002678,0.000431,0.013281
43167000,0.0324,0.013523,0.002678,0.000431,0.012223
43168000,0.0324,0.013523,0.002678,0.000431,0.009637
43169000,0.0324,0.013523,0.002678,0.000431,0.009520
43170000,0.0324,0.013523,0.002678,0.000431,0.010460
43171000,0.0324,0.013523,0.002678,0.000431,0.006817
43172000,0.0324,0.013523,0.002678,0.000431,0.005759
43173000,0.0324,0.013523,0.002678,0.000431,0.005641
43174000,0.0324,0.013523,0.002678,0.000431,0.006111
43175000,0.0324,0.013523,0.002678,0.000431,0.005171
43176000,0.0324,0.013523,0.002678,0.000431,0.007757
43177000,0.0324,0.013523,0.002678,0.000431,0.005289
43178000,0.0324,0.013523,0.002678,0.000431,0.005054
43179000,0.0324,0.013523,0.002678,0.000431,0.004466
43180000,0.0324,0.013523,0.002678,0.000431,0.005406
43181000,0.0324,0.013523,0.002678,0.000431,0.004584
43182000,0.0324,0.013523,0.002678,0.000431,0.005054
43183000,0.0324,0.013523,0.002678,0.000431,0.005171
43184000,0.0324,0.013523,0.002678,0.000431,0.004466
43185000,0.0324,0.013523,0.002678,0.000431,0.005994
43186000,0.0324,0.013523,0.002678,0.000431,0.003526
43187000,0.0324,0.013523,0.002678,0.000431,0.003408
43188000,0.0324,0.013523,0.002678,0.000431,0.004936
43189000,0.0324,0.013523,0.002678,0.000431,0.002703
43190000,0.0324,0.013523,0.002678,0.000431,0.002703
43191000,0.0324,0.013523,0.002678,0.000431,0.002468
43192000,0.0324,0.013523,0.002678,0.000431,0.002703
43193000,0.0324,0.013523,0.002678,0.000431,0.002586
43194000,0.0324,0.013523,0.002678,0.000431,0.002586
43195000,0.0324,0.013523,0.002678,0.000431,0.002468
43196000,0.0324,0.013523,0.002678,0.000431,0.003526
43197000,0.0324,0.013523,0.002678,0.000431,0.001880
43198000,0.0324,0.013523,0.002678,0.000431,0.001528
43199000,0.0324,0.013523,0.002678,0.000431,0.001763
43200000,0.0324,0.013523,0.002678,0.000431,0.001763
43201000,0.0324,0.013523,0.002678,0.000431,0.001763
43202000,0.0324,0.013523,0.002678,0.000431,0.001645
43203000,0.0324,0.013523,0.002678,0.000431,0.001645
43204000,0.0324,0.013523,0.002678,0.000431,0.001645
43205000,0.0324,0.013523,0.002678,0.000431,0.001763
43206000,0.0324,0.013523,0.002678,0.000431,0.001763
43207000,0.0324,0.013523,0.002678,0.000431,0.001645
43208000,0.0324,0.013523,0.002678,0.000431,0.001880
43209000,0.0324,0.013523,0.002678,0.000431,0.001645
43210000,0.0324,0.013523,0.002678,0.000431,0.001645
43211000,0.0324,0.013523,0.002678,0.000431,0.001880
43212000,0.0324,0.013523,0.002678,0.000431,0.001645
43213000,0.0324,0.013523,0.002678,0.000431,0.001763
43214000,0.0324,0.013523,0.002678,0.000431,0.001528
43215000,0.0324,0.013523,0.002678,0.000431,0.001880
43216000,0.0324,0.013523,0.002678,0.000431,0.001763
43217000,0.0324,0.013523,0.002678,0.000431,0.001645
43218000,0.0324,0.013523,0.002678,0.000431,0.001645
43219000,0.0324,0.013523,0.002678,0.000431,0.001763
43220000,0.0324,0.013523,0.002678,0.000431,0.001880
43221000,0.0324,0.013523,0.002678,0.000431,0.001528
43222000,0.0324,0.013523,0.002678,0.000431,0.001763
43223000,0.0324,0.013523,0.002678,0.000431,0.001763
43224000,0.0324,0.013523,0.002678,0.000431,0.001645
43225000,0.0324,0.013523,0.002678,0.000431,0.001763
43226000,0.0324,0.013523,0.002678,0.000431,0.001645
43227000,0.0324,0.013523,0.002678,0.000431,0.001763
43228000,0.0324,0.013523,0.002678,0.000431,0.001645
43229000,0.0324,0.013523,0.002678,0.000431,0.001763
43230000,0.0324,0.013523,0.002678,0.000431,0.001645
43231000,0.0324,0.013523,0.002678,0.000431,0.001880
43232000,0.0324,0.013523,0.002678,0.000431,0.001528
43233000,0.0324,0.013523,0.002678,0.000431,0.001763
43234000,0.0324,0.013523,0.002678,0.000431,0.001880
43235000,0.0324,0.013523,0.002678,0.000431,0.001645
43236000,0.0324,0.013523,0.002678,0.000431,0.001880
43237000,0.0324,0.013523,0.002678,0.000431,0.001410
43238000,0.0324,0.013523,0.002678,0.000431,0.001880
43239000,0.0324,0.013523,0.002678,0.000431,0.001763
43240000,0.0324,0.013523,0.002678,0.000431,0.001763
43241000,0.0324,0.013523,0.002678,0.000431,0.001645
43242000,0.0324,0.013523,0.002678,0.000431,0.001880
43243000,0.0324,0.013523,0.002678,0.000431,0.001645
43244000,0.0324,0.013523,0.002678,0.000431,0.001763
43245000,0.0324,0.013523,0.002678,0.000431,0.001645
43246000,0.0324,0.013523,0.002678,0.000431,0.001763
43247000,0.0324,0.013523,0.002678,0.000431,0.001763
43248000,0.0324,0.013523,0.002678,0.000431,0.001645
43249000,0.0324,0.013523,0.002678,0.000431,0.001528
43250000,0.0324,0.013523,0.002678,0.000431,0.001880
43251000,0.0324,0.013523,0.002678,0.000431,0.001763
43252000,0.0324,0.013523,0.002678,0.000431,0.001645
43253000,0.0324,0.013523,0.002678,0.000431,0.001763
43254000,0.0324,0.013523,0.002678,0.000431,0.001645
43255000,0.0324,0.013523,0.002678,0.000431,0.001763
43256000,0.0324,0.013523,0.002678,0.000431,0.001763
43257000,0.0324,0.013523,0.002678,0.000431,0.001645
43258000,0.0324,0.013523,0.002678,0.000431,0.001880
43259000,0.0324,0.013523,0.002678,0.000431,0.001645
43260000,0.0324,0.013523,0.002678,0.000431,0.001763
43261000,0.0324,0.013523,0.002678,0.000431,0.001645
43262000,0.0324,0.013523,0.002678,0.000431,0.001763
43263000,0.0324,0.013523,0.002678,0.000431,0.001763
43264000,0.0324,0.013523,0.002678,0.000431,0.001645
43265000,0.0324,0.013523,0.002678,0.000431,0.003996
43266000,0.0324,0.013523,0.002678,0.000431,0.000705
43267000,0.0324,0.013523,0.002678,0.000431,0.000940
43268000,0.0324,0.013523,0.002678,0.000431,0.000823
43269000,0.0324,0.013523,0.002678,0.000431,0.000823
43270000,0.0324,0.013523,0.002678,0.000431,0.000823
43271000,0.0324,0.013523,0.002678,0.000431,0.000823
43272000,0.0324,0.013523,0.002678,0.000431,0.000823
43273000,0.0324,0.013523,0.002678,0.000431,0.000823
43274000,0.0324,0.013523,0.002678,0.000431,0.000823
43275000,0.0324,0.013523,0.002678,0.000431,0.000823
43276000,0.0324,0.013523,0.002678,0.000431,0.000940
43277000,0.0324,0.013523,0.002678,0.000431,0.000823
43278000,0.0324,0.013523,0.002678,0.000431,0.000823
43279000,0.0324,0.013523,0.002678,0.000431,0.000705
43280000,0.0324,0.013523,0.002678,0.000431,0.000940
43281000,0.0324,0.013523,0.002678,0.000431,0.000940
43282000,0.0324,0.013523,0.002678,0.000431,0.000705
43283000,0.0324,0.013523,0.002678,0.000431,0.000940
43284000,0.0324,0.013523,0.002678,0.000431,0.000705
43285000,0.0324,0.013523,0.002678,0.000431,0.000940
43286000,0.0324,0.013523,0.002678,0.000431,0.061937
43287000,0.0324,0.013523,0.002678,0.000431,0.473874
43288000,0.0324,0.013523,0.002678,0.000431,0.595515
43289000,0.0324,0.013523,0.002678,0.000431,0.131044
43290000,0.0324,0.013523,0.002678,0.000431,0.134100
43291000,0.0324,0.013523,0.002678,0.000431,0.630774
43292000,0.0324,0.013523,0.002678,0.000431,0.239993
43293000,0.0324,0.013523,0.002678,0.000431,0.270197
43294000,0.0324,0.013523,0.002678,0.000431,0.301107
43295000,0.0324,0.013523,0.002678,0.000431,0.141857
43296000,0.0324,0.013523,0.002678,0.000431,0.165480
43297000,0.0324,0.013523,0.002678,0.000431,0.118586
43298000,0.0324,0.013523,0.002678,0.000431,0.489035
43299000,0.0324,0.013523,0.002678,0.000431,0.120584
43300000,0.0324,0.013523,0.002678,0.000431,0.086148
43301000,0.0324,0.013523,0.002678,0.000431,0.053593
43302000,0.0324,0.013523,0.002678,0.000431,0.038079
43303000,0.0324,0.013523,0.002678,0.000431,0.031145
43304000,0.0324,0.013523,0.002678,0.000431,0.017042
43305000,0.0324,0.013523,0.002678,0.000431,0.015866
43306000,0.0324,0.013523,0.002678,0.000431,0.009050
43307000,0.0324,0.013523,0.002678,0.000431,0.007052
43308000,0.0324,0.013523,0.002678,0.000431,0.005054
43309000,0.0324,0.013523,0.002678,0.000431,0.004349
43310000,0.0324,0.013523,0.002678,0.000431,0.003526
43311000,0.0324,0.013523,0.002678,0.000431,0.003761
43312000,0.0324,0.013523,0.002678,0.000431,0.003526
43313000,0.0324,0.013523,0.002678,0.000431,0.006699
43314000,0.0324,0.013523,0.002678,0.000431,0.001645
43315000,0.0324,0.013523,0.002678,0.000431,0.001645
43316000,0.0324,0.013523,0.002678,0.000431,0.001880
43317000,0.0324,0.013523,0.002678,0.000431,0.001880
43318000,0.0324,0.013523,0.002678,0.000431,0.001645
43319000,0.0324,0.013523,0.002678,0.000431,0.001645
43320000,0.0324,0.013523,0.002678,0.000431,0.002468
43321000,0.0324,0.013523,0.002678,0.000431,0.001763
43322000,0.0324,0.013523,0.002678,0.000431,0.000940
43323000,0.0324,0.013523,0.002678,0.000431,0.000823
43324000,0.0324,0.013523,0.002678,0.000431,0.000940
43325000,0.0324,0.013523,0.002678,0.000431,0.000823
43326000,0.0324,0.013523,0.002678,0.000431,0.000823
43327000,0.0324,0.013523,0.002678,0.000431,0.000940
43328000,0.0324,0.013523,0.002678,0.000431,0.000940
43329000,0.0324,0.013523,0.002678,0.000431,0.000823
43330000,0.0324,0.013523,0.002678,0.000431,0.000823
43331000,0.0324,0.013523,0.002678,0.000431,0.000940
43332000,0.0324,0.013523,0.002678,0.000431,0.000940
43333000,0.0324,0.013523,0.002678,0.000431,0.000705
43334000,0.0324,0.013523,0.002678,0.000431,0.000940
43335000,0.0324,0.013523,0.002678,0.000431,0.000940
43336000,0.0324,0.013523,0.002678,0.000431,0.000940
43337000,0.0324,0.013523,0.002678,0.000431,0.000705
43338000,0.0324,0.013523,0.002678,0.000431,0.000940
43339000,0.0324,0.013523,0.002678,0.000431,0.000940
43340000,0.0324,0.013523,0.002678,0.000431,0.000823
43341000,0.0324,0.013523,0.002678,0.000431,0.000940
43342000,0.0324,0.013523,0.002678,0.000431,0.000823
43343000,0.0324,0.013523,0.002678,0.000431,0.000940
43344000,0.0324,0.013523,0.002678,0.000431,0.000823
43345000,0.0324,0.013523,0.002678,0.000431,0.000823
43346000,0.0324,0.013523,0.002678,0.000431,0.000940
43347000,0.0324,0.013523,0.002678,0.000431,0.000940
43348000,0.0324,0.013523,0.002678,0.000431,0.000705
43349000,0.0324,0.013523,0.002678,0.000431,0.000940
43350000,0.0324,0.013523,0.002678,0.000431,0.000940
43351000,0.0324,0.013523,0.002678,0.000431,0.000940
43352000,0.0324,0.013523,0.002678,0.000431,0.000705
43353000,0.0324,0.013523,0.002678,0.000431,0.000940
43354000,0.0324,0.013523,0.002678,0.000431,0.000940
43355000,0.0324,0.013523,0.002678,0.000431,0.000823
43356000,0.0324,0.013523,0.002678,0.000431,0.000823
43357000,0.0324,0.013523,0.002678,0.000431,0.000940
43358000,0.0324,0.013523,0.002678,0.000431,0.000940
43359000,0.0324,0.013523,0.002678,0.000431,0.000823
43360000,0.0324,0.013523,0.002678,0.000431,0.000823
43361000,0.0324,0.013523,0.002678,0.000431,0.000940
43362000,0.0324,0.013523,0.002678,0.000431,0.000823
43363000,0.0324,0.013523,0.002678,0.000431,0.000940
43364000,0.0324,0.013523,0.002678,0.000431,0.000823
43365000,0.0324,0.013523,0.002678,0.000431,0.000940
43366000,0.0324,0.013523,0.002678,0.000431,0.000823
43367000,0.0324,0.013523,0.002678,0.000431,0.000823
43368000,0.0324,0.013523,0.002678,0.000431,0.000940
43369000,0.0324,0.013523,0.002678,0.000431,0.000940
43370000,0.0324,0.013523,0.002678,0.000431,0.000823
43371000,0.0324,0.013523,0.002678,0.000431,0.000823
43372000,0.0324,0.013523,0.002678,0.000431,0.000940
43373000,0.0324,0.013523,0.002678,0.000431,0.000940
43374000,0.0324,0.013523,0.002678,0.000431,0.000823
43375000,0.0324,0.013523,0.002678,0.000431,0.000823
43376000,0.0324,0.013523,0.002678,0.000431,0.000940
43377000,0.0324,0.013523,0.002678,0.000431,0.000940
43378000,0.0324,0.013523,0.002678,0.000431,0.000940
43379000,0.0324,0.013523,0.002678,0.000431,0.000823
43380000,0.0324,0.013523,0.002678,0.000431,0.000823
43381000,0.0324,0.013523,0.002678,0.000431,0.000940
