Cycle,Area(mm^2),PeakDynamic(W),SubthresholdLeakage(W),GateLeakage(W),RunTimeDynamic(W)
80000000,0.0324,0.013523,0.002678,0.000431,0.025034
80001000,0.0324,0.013523,0.002678,0.000431,0.017747
80002000,0.0324,0.013523,0.002678,0.000431,0.016807
80003000,0.0324,0.013523,0.002678,0.000431,0.013046
80004000,0.0324,0.013523,0.002678,0.000431,0.011988
80005000,0.0324,0.013523,0.002678,0.000431,0.012340
80006000,0.0324,0.013523,0.002678,0.000431,0.007992
80007000,0.0324,0.013523,0.002678,0.000431,0.008580
80008000,0.0324,0.013523,0.002678,0.000431,0.010930
80009000,0.0324,0.013523,0.002678,0.000431,0.008580
80010000,0.0324,0.013523,0.002678,0.000431,0.007404
80011000,0.0324,0.013523,0.002678,0.000431,0.007874
80012000,0.0324,0.013523,0.002678,0.000431,0.003643
80013000,0.0324,0.013523,0.002678,0.000431,0.004349
80014000,0.0324,0.013523,0.002678,0.000431,0.003761
80015000,0.0324,0.013523,0.002678,0.000431,0.002703
80016000,0.0324,0.013523,0.002678,0.000431,0.002468
80017000,0.0324,0.013523,0.002678,0.000431,0.002703
80018000,0.0324,0.013523,0.002678,0.000431,0.002586
80019000,0.0324,0.013523,0.002678,0.000431,0.004819
80020000,0.0324,0.013523,0.002678,0.000431,0.001645
80021000,0.0324,0.013523,0.002678,0.000431,0.001763
80022000,0.0324,0.013523,0.002678,0.000431,0.001880
80023000,0.0324,0.013523,0.002678,0.000431,0.001763
80024000,0.0324,0.013523,0.002678,0.000431,0.001645
80025000,0.0324,0.013523,0.002678,0.000431,0.001763
80026000,0.0324,0.013523,0.002678,0.000431,0.001763
80027000,0.0324,0.013523,0.002678,0.000431,0.001763
80028000,0.0324,0.013523,0.002678,0.000431,0.001763
80029000,0.0324,0.013523,0.002678,0.000431,0.001880
80030000,0.0324,0.013523,0.002678,0.000431,0.001645
80031000,0.0324,0.013523,0.002678,0.000431,0.001763
80032000,0.0324,0.013523,0.002678,0.000431,0.001763
80033000,0.0324,0.013523,0.002678,0.000431,0.001763
80034000,0.0324,0.013523,0.002678,0.000431,0.001645
80035000,0.0324,0.013523,0.002678,0.000431,0.001880
80036000,0.0324,0.013523,0.002678,0.000431,0.001763
80037000,0.0324,0.013523,0.002678,0.000431,0.001763
80038000,0.0324,0.013523,0.002678,0.000431,0.001645
80039000,0.0324,0.013523,0.002678,0.000431,0.001763
80040000,0.0324,0.013523,0.002678,0.000431,0.001763
80041000,0.0324,0.013523,0.002678,0.000431,0.001880
80042000,0.0324,0.013523,0.002678,0.000431,0.001763
80043000,0.0324,0.013523,0.002678,0.000431,0.001645
80044000,0.0324,0.013523,0.002678,0.000431,0.001763
80045000,0.0324,0.013523,0.002678,0.000431,0.001763
80046000,0.0324,0.013523,0.002678,0.000431,0.003291
80047000,0.0324,0.013523,0.002678,0.000431,0.000823
80048000,0.0324,0.013523,0.002678,0.000431,0.000940
80049000,0.0324,0.013523,0.002678,0.000431,0.000823
80050000,0.0324,0.013523,0.002678,0.000431,0.000940
80051000,0.0324,0.013523,0.002678,0.000431,0.000823
80052000,0.0324,0.013523,0.002678,0.000431,0.000940
80053000,0.0324,0.013523,0.002678,0.000431,0.000823
80054000,0.0324,0.013523,0.002678,0.000431,0.000823
80055000,0.0324,0.013523,0.002678,0.000431,0.000940
80056000,0.0324,0.013523,0.002678,0.000431,0.000940
80057000,0.0324,0.013523,0.002678,0.000431,0.000823
80058000,0.0324,0.013523,0.002678,0.000431,0.000823
80059000,0.0324,0.013523,0.002678,0.000431,0.000940
80060000,0.0324,0.013523,0.002678,0.000431,0.000940
80061000,0.0324,0.013523,0.002678,0.000431,0.000705
80062000,0.0324,0.013523,0.002678,0.000431,0.000940
80063000,0.0324,0.013523,0.002678,0.000431,0.000940
80064000,0.0324,0.013523,0.002678,0.000431,0.000940
80065000,0.0324,0.013523,0.002678,0.000431,0.000705
80066000,0.0324,0.013523,0.002678,0.000431,0.000940
80067000,0.0324,0.013523,0.002678,0.000431,0.000940
80068000,0.0324,0.013523,0.002678,0.000431,0.000823
80069000,0.0324,0.013523,0.002678,0.000431,0.000940
80070000,0.0324,0.013523,0.002678,0.000431,0.000823
80071000,0.0324,0.013523,0.002678,0.000431,0.000940
80072000,0.0324,0.013523,0.002678,0.000431,0.000823
80073000,0.0324,0.013523,0.002678,0.000431,0.000823
80074000,0.0324,0.013523,0.002678,0.000431,0.000940
80075000,0.0324,0.013523,0.002678,0.000431,0.000940
80076000,0.0324,0.013523,0.002678,0.000431,0.000823
80077000,0.0324,0.013523,0.002678,0.000431,0.000823
80078000,0.0324,0.013523,0.002678,0.000431,0.000940
80079000,0.0324,0.013523,0.002678,0.000431,0.000940
80080000,0.0324,0.013523,0.002678,0.000431,0.000705
80081000,0.0324,0.013523,0.002678,0.000431,0.000940
80082000,0.0324,0.013523,0.002678,0.000431,0.000940
80083000,0.0324,0.013523,0.002678,0.000431,0.000940
80084000,0.0324,0.013523,0.002678,0.000431,0.000705
80085000,0.0324,0.013523,0.002678,0.000431,0.000940
80086000,0.0324,0.013523,0.002678,0.000431,0.000940
80087000,0.0324,0.013523,0.002678,0.000431,0.000823
80088000,0.0324,0.013523,0.002678,0.000431,0.000823
80089000,0.0324,0.013523,0.002678,0.000431,0.000940
80090000,0.0324,0.013523,0.002678,0.000431,0.000823
80091000,0.0324,0.013523,0.002678,0.000431,0.000940
80092000,0.0324,0.013523,0.002678,0.000431,0.000823
80093000,0.0324,0.013523,0.002678,0.000431,0.000940
80094000,0.0324,0.013523,0.002678,0.000431,0.000823
80095000,0.0324,0.013523,0.002678,0.000431,0.000823
80096000,0.0324,0.013523,0.002678,0.000431,0.000940
80097000,0.0324,0.013523,0.002678,0.000431,0.000940
80098000,0.0324,0.013523,0.002678,0.000431,0.000823
80099000,0.0324,0.013523,0.002678,0.000431,0.000823
80100000,0.0324,0.013523,0.002678,0.000431,0.000940
80101000,0.0324,0.013523,0.002678,0.000431,0.000940
80102000,0.0324,0.013523,0.002678,0.000431,0.000823
80103000,0.0324,0.013523,0.002678,0.000431,0.000823
80104000,0.0324,0.013523,0.002678,0.000431,0.000940
80105000,0.0324,0.013523,0.002678,0.000431,0.000940
80106000,0.0324,0.013523,0.002678,0.000431,0.000823
80107000,0.0324,0.013523,0.002678,0.000431,0.000823
80108000,0.0324,0.013523,0.002678,0.000431,0.000940
80109000,0.0324,0.013523,0.002678,0.000431,0.000823
80110000,0.0324,0.013523,0.002678,0.000431,0.000940
80111000,0.0324,0.013523,0.002678,0.000431,0.000823
80112000,0.0324,0.013523,0.002678,0.000431,0.000940
80113000,0.0324,0.013523,0.002678,0.000431,0.000823
80114000,0.0324,0.013523,0.002678,0.000431,0.000823
80115000,0.0324,0.013523,0.002678,0.000431,0.000940
80116000,0.0324,0.013523,0.002678,0.000431,0.000940
80117000,0.0324,0.013523,0.002678,0.000431,0.000823
80118000,0.0324,0.013523,0.002678,0.000431,0.000823
80119000,0.0324,0.013523,0.002678,0.000431,0.000940
80120000,0.0324,0.013523,0.002678,0.000431,0.000940
80121000,0.0324,0.013523,0.002678,0.000431,0.000705
80122000,0.0324,0.013523,0.002678,0.000431,0.000940
80123000,0.0324,0.013523,0.002678,0.000431,0.000940
80124000,0.0324,0.013523,0.002678,0.000431,0.000940
80125000,0.0324,0.013523,0.002678,0.000431,0.000705
80126000,0.0324,0.013523,0.002678,0.000431,0.000940
80127000,0.0324,0.013523,0.002678,0.000431,0.000940
80128000,0.0324,0.013523,0.002678,0.000431,0.000823
80129000,0.0324,0.013523,0.002678,0.000431,0.000940
80130000,0.0324,0.013523,0.002678,0.000431,0.000823
80131000,0.0324,0.013523,0.002678,0.000431,0.000940
80132000,0.0324,0.013523,0.002678,0.000431,0.000823
80133000,0.0324,0.013523,0.002678,0.000431,0.000823
80134000,0.0324,0.013523,0.002678,0.000431,0.000940
80135000,0.0324,0.013523,0.002678,0.000431,0.000940
80136000,0.0324,0.013523,0.002678,0.000431,0.000705
80137000,0.0324,0.013523,0.002678,0.000431,0.000940
80138000,0.0324,0.013523,0.002678,0.000431,0.000940
80139000,0.0324,0.013523,0.002678,0.000431,0.000940
80140000,0.0324,0.013523,0.002678,0.000431,0.000705
80141000,0.0324,0.013523,0.002678,0.000431,0.000940
80142000,0.0324,0.013523,0.002678,0.000431,0.000940
80143000,0.0324,0.013523,0.002678,0.000431,0.000823
80144000,0.0324,0.013523,0.002678,0.000431,0.000823
80145000,0.0324,0.013523,0.002678,0.000431,0.000940
80146000,0.0324,0.013523,0.002678,0.000431,0.187928
80147000,0.0324,0.013523,0.002678,0.000431,0.486802
80148000,0.0324,0.013523,0.002678,0.000431,0.526644
80149000,0.0324,0.013523,0.002678,0.000431,0.133982
80150000,0.0324,0.013523,0.002678,0.000431,0.132572
80151000,0.0324,0.013523,0.002678,0.000431,0.548386
80152000,0.0324,0.013523,0.002678,0.000431,0.254801
80153000,0.0324,0.013523,0.002678,0.000431,0.219778
80154000,0.0324,0.013523,0.002678,0.000431,0.335425
80155000,0.0324,0.013523,0.002678,0.000431,0.150319
80156000,0.0324,0.013523,0.002678,0.000431,0.137978
80157000,0.0324,0.013523,0.002678,0.000431,0.112474
80158000,0.0324,0.013523,0.002678,0.000431,0.361047
80159000,0.0324,0.013523,0.002678,0.000431,0.260090
80160000,0.0324,0.013523,0.002678,0.000431,0.072162
80161000,0.0324,0.013523,0.002678,0.000431,0.066051
80162000,0.0324,0.013523,0.002678,0.000431,0.058176
80163000,0.0324,0.013523,0.002678,0.000431,0.046541
80164000,0.0324,0.013523,0.002678,0.000431,0.040077
80165000,0.0324,0.013523,0.002678,0.000431,0.042075
80166000,0.0324,0.013523,0.002678,0.000431,0.032790
80167000,0.0324,0.013523,0.002678,0.000431,0.032203
80168000,0.0324,0.013523,0.002678,0.000431,0.025504
80169000,0.0324,0.013523,0.002678,0.000431,0.022095
80170000,0.0324,0.013523,0.002678,0.000431,0.022565
80171000,0.0324,0.013523,0.002678,0.000431,0.022918
80172000,0.0324,0.013523,0.002678,0.000431,0.019510
80173000,0.0324,0.013523,0.002678,0.000431,0.025739
80174000,0.0324,0.013523,0.002678,0.000431,0.018334
80175000,0.0324,0.013523,0.002678,0.000431,0.016924
80176000,0.0324,0.013523,0.002678,0.000431,0.015749
80177000,0.0324,0.013523,0.002678,0.000431,0.014809
80178000,0.0324,0.013523,0.002678,0.000431,0.015279
80179000,0.0324,0.013523,0.002678,0.000431,0.016219
80180000,0.0324,0.013523,0.002678,0.000431,0.018569
80181000,0.0324,0.013523,0.002678,0.000431,0.015514
80182000,0.0324,0.013523,0.002678,0.000431,0.013398
80183000,0.0324,0.013523,0.002678,0.000431,0.014926
80184000,0.0324,0.013523,0.002678,0.000431,0.014573
80185000,0.0324,0.013523,0.002678,0.000431,0.007992
80186000,0.0324,0.013523,0.002678,0.000431,0.008345
80187000,0.0324,0.013523,0.002678,0.000431,0.007874
80188000,0.0324,0.013523,0.002678,0.000431,0.008932
80189000,0.0324,0.013523,0.002678,0.000431,0.007874
80190000,0.0324,0.013523,0.002678,0.000431,0.007874
80191000,0.0324,0.013523,0.002678,0.000431,0.008815
80192000,0.0324,0.013523,0.002678,0.000431,0.007992
80193000,0.0324,0.013523,0.002678,0.000431,0.009520
80194000,0.0324,0.013523,0.002678,0.000431,0.007522
80195000,0.0324,0.013523,0.002678,0.000431,0.007287
80196000,0.0324,0.013523,0.002678,0.000431,0.007287
80197000,0.0324,0.013523,0.002678,0.000431,0.007404
80198000,0.0324,0.013523,0.002678,0.000431,0.007522
80199000,0.0324,0.013523,0.002678,0.000431,0.008580
80200000,0.0324,0.013523,0.002678,0.000431,0.007992
80201000,0.0324,0.013523,0.002678,0.000431,0.006229
80202000,0.0324,0.013523,0.002678,0.000431,0.006934
80203000,0.0324,0.013523,0.002678,0.000431,0.005759
80204000,0.0324,0.013523,0.002678,0.000431,0.005054
80205000,0.0324,0.013523,0.002678,0.000431,0.004584
80206000,0.0324,0.013523,0.002678,0.000431,0.005406
80207000,0.0324,0.013523,0.002678,0.000431,0.005171
80208000,0.0324,0.013523,0.002678,0.000431,0.006229
80209000,0.0324,0.013523,0.002678,0.000431,0.005759
80210000,0.0324,0.013523,0.002678,0.000431,0.002938
80211000,0.0324,0.013523,0.002678,0.000431,0.003643
80212000,0.0324,0.013523,0.002678,0.000431,0.003173
80213000,0.0324,0.013523,0.002678,0.000431,0.003173
80214000,0.0324,0.013523,0.002678,0.000431,0.003173
80215000,0.0324,0.013523,0.002678,0.000431,0.003291
80216000,0.0324,0.013523,0.002678,0.000431,0.003291
80217000,0.0324,0.013523,0.002678,0.000431,0.003173
80218000,0.0324,0.013523,0.002678,0.000431,0.003408
80219000,0.0324,0.013523,0.002678,0.000431,0.002938
80220000,0.0324,0.013523,0.002678,0.000431,0.003526
80221000,0.0324,0.013523,0.002678,0.000431,0.003291
80222000,0.0324,0.013523,0.002678,0.000431,0.003291
80223000,0.0324,0.013523,0.002678,0.000431,0.002938
80224000,0.0324,0.013523,0.002678,0.000431,0.003408
80225000,0.0324,0.013523,0.002678,0.000431,0.003173
80226000,0.0324,0.013523,0.002678,0.000431,0.003173
80227000,0.0324,0.013523,0.002678,0.000431,0.003761
80228000,0.0324,0.013523,0.002678,0.000431,0.002586
80229000,0.0324,0.013523,0.002678,0.000431,0.003643
80230000,0.0324,0.013523,0.002678,0.000431,0.003173
80231000,0.0324,0.013523,0.002678,0.000431,0.003291
80232000,0.0324,0.013523,0.002678,0.000431,0.003408
80233000,0.0324,0.013523,0.002678,0.000431,0.002938
80234000,0.0324,0.013523,0.002678,0.000431,0.003408
80235000,0.0324,0.013523,0.002678,0.000431,0.003291
80236000,0.0324,0.013523,0.002678,0.000431,0.003408
80237000,0.0324,0.013523,0.002678,0.000431,0.004701
80238000,0.0324,0.013523,0.002678,0.000431,0.002468
80239000,0.0324,0.013523,0.002678,0.000431,0.002468
80240000,0.0324,0.013523,0.002678,0.000431,0.002468
80241000,0.0324,0.013523,0.002678,0.000431,0.002351
80242000,0.0324,0.013523,0.002678,0.000431,0.004584
80243000,0.0324,0.013523,0.002678,0.000431,0.001293
80244000,0.0324,0.013523,0.002678,0.000431,0.001763
80245000,0.0324,0.013523,0.002678,0.000431,0.001880
80246000,0.0324,0.013523,0.002678,0.000431,0.001175
80247000,0.0324,0.013523,0.002678,0.000431,0.001645
80248000,0.0324,0.013523,0.002678,0.000431,0.001410
80249000,0.0324,0.013523,0.002678,0.000431,0.001645
80250000,0.0324,0.013523,0.002678,0.000431,0.001645
80251000,0.0324,0.013523,0.002678,0.000431,0.001645
80252000,0.0324,0.013523,0.002678,0.000431,0.001410
80253000,0.0324,0.013523,0.002678,0.000431,0.001645
80254000,0.0324,0.013523,0.002678,0.000431,0.001293
80255000,0.0324,0.013523,0.002678,0.000431,0.001763
80256000,0.0324,0.013523,0.002678,0.000431,0.001880
80257000,0.0324,0.013523,0.002678,0.000431,0.001175
80258000,0.0324,0.013523,0.002678,0.000431,0.001880
80259000,0.0324,0.013523,0.002678,0.000431,0.001293
80260000,0.0324,0.013523,0.002678,0.000431,0.001763
80261000,0.0324,0.013523,0.002678,0.000431,0.001645
80262000,0.0324,0.013523,0.002678,0.000431,0.001410
80263000,0.0324,0.013523,0.002678,0.000431,0.001645
80264000,0.0324,0.013523,0.002678,0.000431,0.001528
80265000,0.0324,0.013523,0.002678,0.000431,0.001763
80266000,0.0324,0.013523,0.002678,0.000431,0.001410
80267000,0.0324,0.013523,0.002678,0.000431,0.001645
80268000,0.0324,0.013523,0.002678,0.000431,0.001645
80269000,0.0324,0.013523,0.002678,0.000431,0.001528
80270000,0.0324,0.013523,0.002678,0.000431,0.001528
80271000,0.0324,0.013523,0.002678,0.000431,0.001645
80272000,0.0324,0.013523,0.002678,0.000431,0.001410
80273000,0.0324,0.013523,0.002678,0.000431,0.001645
80274000,0.0324,0.013523,0.002678,0.000431,0.001410
80275000,0.0324,0.013523,0.002678,0.000431,0.001645
80276000,0.0324,0.013523,0.002678,0.000431,0.001880
80277000,0.0324,0.013523,0.002678,0.000431,0.001175
80278000,0.0324,0.013523,0.002678,0.000431,0.001880
80279000,0.0324,0.013523,0.002678,0.000431,0.001410
80280000,0.0324,0.013523,0.002678,0.000431,0.001645
80281000,0.0324,0.013523,0.002678,0.000431,0.001645
80282000,0.0324,0.013523,0.002678,0.000431,0.001410
80283000,0.0324,0.013523,0.002678,0.000431,0.001880
80284000,0.0324,0.013523,0.002678,0.000431,0.001410
80285000,0.0324,0.013523,0.002678,0.000431,0.001645
80286000,0.0324,0.013523,0.002678,0.000431,0.001645
80287000,0.0324,0.013523,0.002678,0.000431,0.001410
80288000,0.0324,0.013523,0.002678,0.000431,0.001763
80289000,0.0324,0.013523,0.002678,0.000431,0.001763
80290000,0.0324,0.013523,0.002678,0.000431,0.001645
80291000,0.0324,0.013523,0.002678,0.000431,0.213079
80292000,0.0324,0.013523,0.002678,0.000431,0.644407
80293000,0.0324,0.013523,0.002678,0.000431,0.347178
80294000,0.0324,0.013523,0.002678,0.000431,0.131161
80295000,0.0324,0.013523,0.002678,0.000431,0.133982
80296000,0.0324,0.013523,0.002678,0.000431,0.586701
80297000,0.0324,0.013523,0.002678,0.000431,0.234469
80298000,0.0324,0.013523,0.002678,0.000431,0.291822
80299000,0.0324,0.013523,0.002678,0.000431,0.293938
80300000,0.0324,0.013523,0.002678,0.000431,0.137155
80301000,0.0324,0.013523,0.002678,0.000431,0.179818
80302000,0.0324,0.013523,0.002678,0.000431,0.082505
80303000,0.0324,0.013523,0.002678,0.000431,0.481160
80304000,0.0324,0.013523,0.002678,0.000431,0.147850
80305000,0.0324,0.013523,0.002678,0.000431,0.105423
80306000,0.0324,0.013523,0.002678,0.000431,0.098724
80307000,0.0324,0.013523,0.002678,0.000431,0.070517
80308000,0.0324,0.013523,0.002678,0.000431,0.071575
80309000,0.0324,0.013523,0.002678,0.000431,0.061820
80310000,0.0324,0.013523,0.002678,0.000431,0.049949
80311000,0.0324,0.013523,0.002678,0.000431,0.039254
80312000,0.0324,0.013523,0.002678,0.000431,0.041840
80313000,0.0324,0.013523,0.002678,0.000431,0.033731
80314000,0.0324,0.013523,0.002678,0.000431,0.028324
80315000,0.0324,0.013523,0.002678,0.000431,0.027384
80316000,0.0324,0.013523,0.002678,0.000431,0.027267
80317000,0.0324,0.013523,0.002678,0.000431,0.028677
80318000,0.0324,0.013523,0.002678,0.000431,0.025386
80319000,0.0324,0.013523,0.002678,0.000431,0.017042
80320000,0.0324,0.013523,0.002678,0.000431,0.015866
80321000,0.0324,0.013523,0.002678,0.000431,0.016807
80322000,0.0324,0.013523,0.002678,0.000431,0.021860
80323000,0.0324,0.013523,0.002678,0.000431,0.012576
80324000,0.0324,0.013523,0.002678,0.000431,0.014456
80325000,0.0324,0.013523,0.002678,0.000431,0.008227
80326000,0.0324,0.013523,0.002678,0.000431,0.009637
80327000,0.0324,0.013523,0.002678,0.000431,0.007757
80328000,0.0324,0.013523,0.002678,0.000431,0.007757
80329000,0.0324,0.013523,0.002678,0.000431,0.007639
80330000,0.0324,0.013523,0.002678,0.000431,0.008109
80331000,0.0324,0.013523,0.002678,0.000431,0.005524
80332000,0.0324,0.013523,0.002678,0.000431,0.007522
80333000,0.0324,0.013523,0.002678,0.000431,0.005524
80334000,0.0324,0.013523,0.002678,0.000431,0.004701
80335000,0.0324,0.013523,0.002678,0.000431,0.002938
80336000,0.0324,0.013523,0.002678,0.000431,0.003643
80337000,0.0324,0.013523,0.002678,0.000431,0.002938
80338000,0.0324,0.013523,0.002678,0.000431,0.003526
80339000,0.0324,0.013523,0.002678,0.000431,0.003291
80340000,0.0324,0.013523,0.002678,0.000431,0.003291
80341000,0.0324,0.013523,0.002678,0.000431,0.005994
80342000,0.0324,0.013523,0.002678,0.000431,0.001763
80343000,0.0324,0.013523,0.002678,0.000431,0.001763
80344000,0.0324,0.013523,0.002678,0.000431,0.001763
80345000,0.0324,0.013523,0.002678,0.000431,0.004584
80346000,0.0324,0.013523,0.002678,0.000431,0.000940
80347000,0.0324,0.013523,0.002678,0.000431,0.000940
80348000,0.0324,0.013523,0.002678,0.000431,0.000705
80349000,0.0324,0.013523,0.002678,0.000431,0.001763
80350000,0.0324,0.013523,0.002678,0.000431,0.398538
80351000,0.0324,0.013523,0.002678,0.000431,0.681076
80352000,0.0324,0.013523,0.002678,0.000431,0.182404
80353000,0.0324,0.013523,0.002678,0.000431,0.137155
80354000,0.0324,0.013523,0.002678,0.000431,0.169358
80355000,0.0324,0.013523,0.002678,0.000431,0.585290
80356000,0.0324,0.013523,0.002678,0.000431,0.240698
80357000,0.0324,0.013523,0.002678,0.000431,0.343887
80358000,0.0324,0.013523,0.002678,0.000431,0.196860
80359000,0.0324,0.013523,0.002678,0.000431,0.151141
80360000,0.0324,0.013523,0.002678,0.000431,0.111769
80361000,0.0324,0.013523,0.002678,0.000431,0.336718
80362000,0.0324,0.013523,0.002678,0.000431,0.265731
80363000,0.0324,0.013523,0.002678,0.000431,0.052300
80364000,0.0324,0.013523,0.002678,0.000431,0.049009
80365000,0.0324,0.013523,0.002678,0.000431,0.046659
80366000,0.0324,0.013523,0.002678,0.000431,0.038079
80367000,0.0324,0.013523,0.002678,0.000431,0.033966
80368000,0.0324,0.013523,0.002678,0.000431,0.027972
80369000,0.0324,0.013523,0.002678,0.000431,0.035846
80370000,0.0324,0.013523,0.002678,0.000431,0.025739
80371000,0.0324,0.013523,0.002678,0.000431,0.022565
80372000,0.0324,0.013523,0.002678,0.000431,0.019157
80373000,0.0324,0.013523,0.002678,0.000431,0.021508
80374000,0.0324,0.013523,0.002678,0.000431,0.023271
80375000,0.0324,0.013523,0.002678,0.000431,0.017277
80376000,0.0324,0.013523,0.002678,0.000431,0.014573
80377000,0.0324,0.013523,0.002678,0.000431,0.011753
80378000,0.0324,0.013523,0.002678,0.000431,0.014691
80379000,0.0324,0.013523,0.002678,0.000431,0.010107
80380000,0.0324,0.013523,0.002678,0.000431,0.009990
80381000,0.0324,0.013523,0.002678,0.000431,0.009637
