Cycle,Area(mm^2),PeakDynamic(W),SubthresholdLeakage(W),GateLeakage(W),RunTimeDynamic(W)
130000000,0.0324,0.013523,0.002678,0.000431,0.000940
130001000,0.0324,0.013523,0.002678,0.000431,0.000823
130002000,0.0324,0.013523,0.002678,0.000431,0.000940
130003000,0.0324,0.013523,0.002678,0.000431,0.000823
130004000,0.0324,0.013523,0.002678,0.000431,0.000823
130005000,0.0324,0.013523,0.002678,0.000431,0.000940
130006000,0.0324,0.013523,0.002678,0.000431,0.000940
130007000,0.0324,0.013523,0.002678,0.000431,0.000823
130008000,0.0324,0.013523,0.002678,0.000431,0.000823
130009000,0.0324,0.013523,0.002678,0.000431,0.000940
130010000,0.0324,0.013523,0.002678,0.000431,0.000940
130011000,0.0324,0.013523,0.002678,0.000431,0.000823
130012000,0.0324,0.013523,0.002678,0.000431,0.000823
130013000,0.0324,0.013523,0.002678,0.000431,0.000940
130014000,0.0324,0.013523,0.002678,0.000431,0.000940
130015000,0.0324,0.013523,0.002678,0.000431,0.000823
130016000,0.0324,0.013523,0.002678,0.000431,0.000823
130017000,0.0324,0.013523,0.002678,0.000431,0.000940
130018000,0.0324,0.013523,0.002678,0.000431,0.000823
130019000,0.0324,0.013523,0.002678,0.000431,0.074513
130020000,0.0324,0.013523,0.002678,0.000431,0.478340
130021000,0.0324,0.013523,0.002678,0.000431,0.567896
130022000,0.0324,0.013523,0.002678,0.000431,0.132102
130023000,0.0324,0.013523,0.002678,0.000431,0.132572
130024000,0.0324,0.013523,0.002678,0.000431,0.577298
130025000,0.0324,0.013523,0.002678,0.000431,0.224361
130026000,0.0324,0.013523,0.002678,0.000431,0.287239
130027000,0.0324,0.013523,0.002678,0.000431,0.297111
130028000,0.0324,0.013523,0.002678,0.000431,0.144795
130029000,0.0324,0.013523,0.002678,0.000431,0.148203
130030000,0.0324,0.013523,0.002678,0.000431,0.116588
130031000,0.0324,0.013523,0.002678,0.000431,0.306631
130032000,0.0324,0.013523,0.002678,0.000431,0.299932
130033000,0.0324,0.013523,0.002678,0.000431,0.048422
130034000,0.0324,0.013523,0.002678,0.000431,0.040665
130035000,0.0324,0.013523,0.002678,0.000431,0.038549
130036000,0.0324,0.013523,0.002678,0.000431,0.033025
130037000,0.0324,0.013523,0.002678,0.000431,0.024446
130038000,0.0324,0.013523,0.002678,0.000431,0.025151
130039000,0.0324,0.013523,0.002678,0.000431,0.020215
130040000,0.0324,0.013523,0.002678,0.000431,0.021743
130041000,0.0324,0.013523,0.002678,0.000431,0.017512
130042000,0.0324,0.013523,0.002678,0.000431,0.021038
130043000,0.0324,0.013523,0.002678,0.000431,0.015866
130044000,0.0324,0.013523,0.002678,0.000431,0.013281
130045000,0.0324,0.013523,0.002678,0.000431,0.013163
130046000,0.0324,0.013523,0.002678,0.000431,0.011165
130047000,0.0324,0.013523,0.002678,0.000431,0.008580
130048000,0.0324,0.013523,0.002678,0.000431,0.006699
130049000,0.0324,0.013523,0.002678,0.000431,0.007052
130050000,0.0324,0.013523,0.002678,0.000431,0.006817
130051000,0.0324,0.013523,0.002678,0.000431,0.007639
130052000,0.0324,0.013523,0.002678,0.000431,0.007874
130053000,0.0324,0.013523,0.002678,0.000431,0.004349
130054000,0.0324,0.013523,0.002678,0.000431,0.003878
130055000,0.0324,0.013523,0.002678,0.000431,0.004113
130056000,0.0324,0.013523,0.002678,0.000431,0.003996
130057000,0.0324,0.013523,0.002678,0.000431,0.003996
130058000,0.0324,0.013523,0.002678,0.000431,0.004584
130059000,0.0324,0.013523,0.002678,0.000431,0.003643
130060000,0.0324,0.013523,0.002678,0.000431,0.004466
130061000,0.0324,0.013523,0.002678,0.000431,0.003761
130062000,0.0324,0.013523,0.002678,0.000431,0.004231
130063000,0.0324,0.013523,0.002678,0.000431,0.004231
130064000,0.0324,0.013523,0.002678,0.000431,0.003761
130065000,0.0324,0.013523,0.002678,0.000431,0.004584
130066000,0.0324,0.013523,0.002678,0.000431,0.003643
130067000,0.0324,0.013523,0.002678,0.000431,0.004349
130068000,0.0324,0.013523,0.002678,0.000431,0.003878
130069000,0.0324,0.013523,0.002678,0.000431,0.004231
130070000,0.0324,0.013523,0.002678,0.000431,0.004113
130071000,0.0324,0.013523,0.002678,0.000431,0.004113
130072000,0.0324,0.013523,0.002678,0.000431,0.006229
130073000,0.0324,0.013523,0.002678,0.000431,0.005524
130074000,0.0324,0.013523,0.002678,0.000431,0.002586
130075000,0.0324,0.013523,0.002678,0.000431,0.002233
130076000,0.0324,0.013523,0.002678,0.000431,0.002703
130077000,0.0324,0.013523,0.002678,0.000431,0.001998
130078000,0.0324,0.013523,0.002678,0.000431,0.002703
130079000,0.0324,0.013523,0.002678,0.000431,0.002233
130080000,0.0324,0.013523,0.002678,0.000431,0.002468
130081000,0.0324,0.013523,0.002678,0.000431,0.002586
130082000,0.0324,0.013523,0.002678,0.000431,0.002116
130083000,0.0324,0.013523,0.002678,0.000431,0.002821
130084000,0.0324,0.013523,0.002678,0.000431,0.002116
130085000,0.0324,0.013523,0.002678,0.000431,0.002586
130086000,0.0324,0.013523,0.002678,0.000431,0.002586
130087000,0.0324,0.013523,0.002678,0.000431,0.002116
130088000,0.0324,0.013523,0.002678,0.000431,0.002586
130089000,0.0324,0.013523,0.002678,0.000431,0.002351
130090000,0.0324,0.013523,0.002678,0.000431,0.002351
130091000,0.0324,0.013523,0.002678,0.000431,0.002468
130092000,0.0324,0.013523,0.002678,0.000431,0.003056
130093000,0.0324,0.013523,0.002678,0.000431,0.000823
130094000,0.0324,0.013523,0.002678,0.000431,0.000823
130095000,0.0324,0.013523,0.002678,0.000431,0.000823
130096000,0.0324,0.013523,0.002678,0.000431,0.000940
130097000,0.0324,0.013523,0.002678,0.000431,0.000705
130098000,0.0324,0.013523,0.002678,0.000431,0.000940
130099000,0.0324,0.013523,0.002678,0.000431,0.000823
130100000,0.0324,0.013523,0.002678,0.000431,0.000705
130101000,0.0324,0.013523,0.002678,0.000431,0.000940
130102000,0.0324,0.013523,0.002678,0.000431,0.000823
130103000,0.0324,0.013523,0.002678,0.000431,0.000823
130104000,0.0324,0.013523,0.002678,0.000431,0.000823
130105000,0.0324,0.013523,0.002678,0.000431,0.000823
130106000,0.0324,0.013523,0.002678,0.000431,0.000823
130107000,0.0324,0.013523,0.002678,0.000431,0.000940
130108000,0.0324,0.013523,0.002678,0.000431,0.000823
130109000,0.0324,0.013523,0.002678,0.000431,0.000823
130110000,0.0324,0.013523,0.002678,0.000431,0.000705
130111000,0.0324,0.013523,0.002678,0.000431,0.000940
130112000,0.0324,0.013523,0.002678,0.000431,0.000940
130113000,0.0324,0.013523,0.002678,0.000431,0.000705
130114000,0.0324,0.013523,0.002678,0.000431,0.000940
130115000,0.0324,0.013523,0.002678,0.000431,0.000705
130116000,0.0324,0.013523,0.002678,0.000431,0.000940
130117000,0.0324,0.013523,0.002678,0.000431,0.000940
130118000,0.0324,0.013523,0.002678,0.000431,0.000705
130119000,0.0324,0.013523,0.002678,0.000431,0.000940
130120000,0.0324,0.013523,0.002678,0.000431,0.000705
130121000,0.0324,0.013523,0.002678,0.000431,0.000940
130122000,0.0324,0.013523,0.002678,0.000431,0.000823
130123000,0.0324,0.013523,0.002678,0.000431,0.000823
130124000,0.0324,0.013523,0.002678,0.000431,0.000823
130125000,0.0324,0.013523,0.002678,0.000431,0.000823
130126000,0.0324,0.013523,0.002678,0.000431,0.000940
130127000,0.0324,0.013523,0.002678,0.000431,0.000705
130128000,0.0324,0.013523,0.002678,0.000431,0.002586
130129000,0.0324,0.013523,0.002678,0.000431,0.419693
130130000,0.0324,0.013523,0.002678,0.000431,0.662389
130131000,0.0324,0.013523,0.002678,0.000431,0.134100
130132000,0.0324,0.013523,0.002678,0.000431,0.134452
130133000,0.0324,0.013523,0.002678,0.000431,0.232353
130134000,0.0324,0.013523,0.002678,0.000431,0.532638
130135000,0.0324,0.013523,0.002678,0.000431,0.288179
130136000,0.0324,0.013523,0.002678,0.000431,0.327786
130137000,0.0324,0.013523,0.002678,0.000431,0.186400
130138000,0.0324,0.013523,0.002678,0.000431,0.145147
130139000,0.0324,0.013523,0.002678,0.000431,0.106481
130140000,0.0324,0.013523,0.002678,0.000431,0.308982
130141000,0.0324,0.013523,0.002678,0.000431,0.261500
130142000,0.0324,0.013523,0.002678,0.000431,0.016689
130143000,0.0324,0.013523,0.002678,0.000431,0.014809
130144000,0.0324,0.013523,0.002678,0.000431,0.013986
130145000,0.0324,0.013523,0.002678,0.000431,0.013986
130146000,0.0324,0.013523,0.002678,0.000431,0.015631
130147000,0.0324,0.013523,0.002678,0.000431,0.011753
130148000,0.0324,0.013523,0.002678,0.000431,0.013986
130149000,0.0324,0.013523,0.002678,0.000431,0.011635
130150000,0.0324,0.013523,0.002678,0.000431,0.011400
130151000,0.0324,0.013523,0.002678,0.000431,0.011283
130152000,0.0324,0.013523,0.002678,0.000431,0.012928
130153000,0.0324,0.013523,0.002678,0.000431,0.009990
130154000,0.0324,0.013523,0.002678,0.000431,0.009637
130155000,0.0324,0.013523,0.002678,0.000431,0.010460
130156000,0.0324,0.013523,0.002678,0.000431,0.009520
130157000,0.0324,0.013523,0.002678,0.000431,0.011048
130158000,0.0324,0.013523,0.002678,0.000431,0.009520
130159000,0.0324,0.013523,0.002678,0.000431,0.008932
130160000,0.0324,0.013523,0.002678,0.000431,0.009050
130161000,0.0324,0.013523,0.002678,0.000431,0.009402
130162000,0.0324,0.013523,0.002678,0.000431,0.009167
130163000,0.0324,0.013523,0.002678,0.000431,0.009520
130164000,0.0324,0.013523,0.002678,0.000431,0.008462
130165000,0.0324,0.013523,0.002678,0.000431,0.010695
130166000,0.0324,0.013523,0.002678,0.000431,0.008227
130167000,0.0324,0.013523,0.002678,0.000431,0.008345
130168000,0.0324,0.013523,0.002678,0.000431,0.007522
130169000,0.0324,0.013523,0.002678,0.000431,0.007404
130170000,0.0324,0.013523,0.002678,0.000431,0.007404
130171000,0.0324,0.013523,0.002678,0.000431,0.007992
130172000,0.0324,0.013523,0.002678,0.000431,0.009402
130173000,0.0324,0.013523,0.002678,0.000431,0.006582
130174000,0.0324,0.013523,0.002678,0.000431,0.007169
130175000,0.0324,0.013523,0.002678,0.000431,0.006111
130176000,0.0324,0.013523,0.002678,0.000431,0.007287
130177000,0.0324,0.013523,0.002678,0.000431,0.006347
130178000,0.0324,0.013523,0.002678,0.000431,0.006817
130179000,0.0324,0.013523,0.002678,0.000431,0.007169
130180000,0.0324,0.013523,0.002678,0.000431,0.006111
130181000,0.0324,0.013523,0.002678,0.000431,0.007404
130182000,0.0324,0.013523,0.002678,0.000431,0.007404
130183000,0.0324,0.013523,0.002678,0.000431,0.006111
130184000,0.0324,0.013523,0.002678,0.000431,0.007169
130185000,0.0324,0.013523,0.002678,0.000431,0.005054
130186000,0.0324,0.013523,0.002678,0.000431,0.005054
130187000,0.0324,0.013523,0.002678,0.000431,0.004701
130188000,0.0324,0.013523,0.002678,0.000431,0.005054
130189000,0.0324,0.013523,0.002678,0.000431,0.004936
130190000,0.0324,0.013523,0.002678,0.000431,0.004936
130191000,0.0324,0.013523,0.002678,0.000431,0.005054
130192000,0.0324,0.013523,0.002678,0.000431,0.004936
130193000,0.0324,0.013523,0.002678,0.000431,0.004819
130194000,0.0324,0.013523,0.002678,0.000431,0.005171
130195000,0.0324,0.013523,0.002678,0.000431,0.005054
130196000,0.0324,0.013523,0.002678,0.000431,0.005054
130197000,0.0324,0.013523,0.002678,0.000431,0.005171
130198000,0.0324,0.013523,0.002678,0.000431,0.004701
130199000,0.0324,0.013523,0.002678,0.000431,0.005406
130200000,0.0324,0.013523,0.002678,0.000431,0.004819
130201000,0.0324,0.013523,0.002678,0.000431,0.004936
130202000,0.0324,0.013523,0.002678,0.000431,0.005171
130203000,0.0324,0.013523,0.002678,0.000431,0.005054
130204000,0.0324,0.013523,0.002678,0.000431,0.005171
130205000,0.0324,0.013523,0.002678,0.000431,0.004936
130206000,0.0324,0.013523,0.002678,0.000431,0.004936
130207000,0.0324,0.013523,0.002678,0.000431,0.005054
130208000,0.0324,0.013523,0.002678,0.000431,0.005054
130209000,0.0324,0.013523,0.002678,0.000431,0.004936
130210000,0.0324,0.013523,0.002678,0.000431,0.005289
130211000,0.0324,0.013523,0.002678,0.000431,0.006229
130212000,0.0324,0.013523,0.002678,0.000431,0.004466
130213000,0.0324,0.013523,0.002678,0.000431,0.004113
130214000,0.0324,0.013523,0.002678,0.000431,0.003996
130215000,0.0324,0.013523,0.002678,0.000431,0.004584
130216000,0.0324,0.013523,0.002678,0.000431,0.003761
130217000,0.0324,0.013523,0.002678,0.000431,0.004349
130218000,0.0324,0.013523,0.002678,0.000431,0.003761
130219000,0.0324,0.013523,0.002678,0.000431,0.004466
130220000,0.0324,0.013523,0.002678,0.000431,0.003996
130221000,0.0324,0.013523,0.002678,0.000431,0.003996
130222000,0.0324,0.013523,0.002678,0.000431,0.004231
130223000,0.0324,0.013523,0.002678,0.000431,0.004231
130224000,0.0324,0.013523,0.002678,0.000431,0.003761
130225000,0.0324,0.013523,0.002678,0.000431,0.004113
130226000,0.0324,0.013523,0.002678,0.000431,0.004349
130227000,0.0324,0.013523,0.002678,0.000431,0.003878
130228000,0.0324,0.013523,0.002678,0.000431,0.004113
130229000,0.0324,0.013523,0.002678,0.000431,0.003996
130230000,0.0324,0.013523,0.002678,0.000431,0.003996
130231000,0.0324,0.013523,0.002678,0.000431,0.008109
130232000,0.0324,0.013523,0.002678,0.000431,0.002351
130233000,0.0324,0.013523,0.002678,0.000431,0.002233
130234000,0.0324,0.013523,0.002678,0.000431,0.002351
130235000,0.0324,0.013523,0.002678,0.000431,0.002586
130236000,0.0324,0.013523,0.002678,0.000431,0.002233
130237000,0.0324,0.013523,0.002678,0.000431,0.002233
130238000,0.0324,0.013523,0.002678,0.000431,0.002586
130239000,0.0324,0.013523,0.002678,0.000431,0.002468
130240000,0.0324,0.013523,0.002678,0.000431,0.002703
130241000,0.0324,0.013523,0.002678,0.000431,0.001528
130242000,0.0324,0.013523,0.002678,0.000431,0.001880
130243000,0.0324,0.013523,0.002678,0.000431,0.002938
130244000,0.0324,0.013523,0.002678,0.000431,0.000705
130245000,0.0324,0.013523,0.002678,0.000431,0.000940
130246000,0.0324,0.013523,0.002678,0.000431,0.000705
130247000,0.0324,0.013523,0.002678,0.000431,0.000940
130248000,0.0324,0.013523,0.002678,0.000431,0.000823
130249000,0.0324,0.013523,0.002678,0.000431,0.000823
130250000,0.0324,0.013523,0.002678,0.000431,0.000823
130251000,0.0324,0.013523,0.002678,0.000431,0.000823
130252000,0.0324,0.013523,0.002678,0.000431,0.000940
130253000,0.0324,0.013523,0.002678,0.000431,0.000823
130254000,0.0324,0.013523,0.002678,0.000431,0.000823
130255000,0.0324,0.013523,0.002678,0.000431,0.000823
130256000,0.0324,0.013523,0.002678,0.000431,0.000823
130257000,0.0324,0.013523,0.002678,0.000431,0.000823
130258000,0.0324,0.013523,0.002678,0.000431,0.000823
130259000,0.0324,0.013523,0.002678,0.000431,0.000940
130260000,0.0324,0.013523,0.002678,0.000431,0.000705
130261000,0.0324,0.013523,0.002678,0.000431,0.000823
130262000,0.0324,0.013523,0.002678,0.000431,0.000940
130263000,0.0324,0.013523,0.002678,0.000431,0.000823
130264000,0.0324,0.013523,0.002678,0.000431,0.000823
130265000,0.0324,0.013523,0.002678,0.000431,0.000823
130266000,0.0324,0.013523,0.002678,0.000431,0.000823
130267000,0.0324,0.013523,0.002678,0.000431,0.000823
130268000,0.0324,0.013523,0.002678,0.000431,0.000940
130269000,0.0324,0.013523,0.002678,0.000431,0.000823
130270000,0.0324,0.013523,0.002678,0.000431,0.000823
130271000,0.0324,0.013523,0.002678,0.000431,0.000705
130272000,0.0324,0.013523,0.002678,0.000431,0.000940
130273000,0.0324,0.013523,0.002678,0.000431,0.000940
130274000,0.0324,0.013523,0.002678,0.000431,0.000705
130275000,0.0324,0.013523,0.002678,0.000431,0.000940
130276000,0.0324,0.013523,0.002678,0.000431,0.000705
130277000,0.0324,0.013523,0.002678,0.000431,0.000940
130278000,0.0324,0.013523,0.002678,0.000431,0.000823
130279000,0.0324,0.013523,0.002678,0.000431,0.000823
130280000,0.0324,0.013523,0.002678,0.000431,0.000940
130281000,0.0324,0.013523,0.002678,0.000431,0.000705
130282000,0.0324,0.013523,0.002678,0.000431,0.000940
130283000,0.0324,0.013523,0.002678,0.000431,0.002351
130284000,0.0324,0.013523,0.002678,0.000431,0.359284
130285000,0.0324,0.013523,0.002678,0.000431,0.658275
130286000,0.0324,0.013523,0.002678,0.000431,0.132102
130287000,0.0324,0.013523,0.002678,0.000431,0.133512
130288000,0.0324,0.013523,0.002678,0.000431,0.139036
130289000,0.0324,0.013523,0.002678,0.000431,0.605035
130290000,0.0324,0.013523,0.002678,0.000431,0.247397
130291000,0.0324,0.013523,0.002678,0.000431,0.265026
130292000,0.0324,0.013523,0.002678,0.000431,0.272313
130293000,0.0324,0.013523,0.002678,0.000431,0.142679
130294000,0.0324,0.013523,0.002678,0.000431,0.148791
130295000,0.0324,0.013523,0.002678,0.000431,0.112239
130296000,0.0324,0.013523,0.002678,0.000431,0.439203
130297000,0.0324,0.013523,0.002678,0.000431,0.088969
130298000,0.0324,0.013523,0.002678,0.000431,0.031498
130299000,0.0324,0.013523,0.002678,0.000431,0.028677
130300000,0.0324,0.013523,0.002678,0.000431,0.023741
130301000,0.0324,0.013523,0.002678,0.000431,0.021390
130302000,0.0324,0.013523,0.002678,0.000431,0.021978
130303000,0.0324,0.013523,0.002678,0.000431,0.017982
130304000,0.0324,0.013523,0.002678,0.000431,0.014573
130305000,0.0324,0.013523,0.002678,0.000431,0.015984
130306000,0.0324,0.013523,0.002678,0.000431,0.014926
130307000,0.0324,0.013523,0.002678,0.000431,0.014691
130308000,0.0324,0.013523,0.002678,0.000431,0.014456
130309000,0.0324,0.013523,0.002678,0.000431,0.014456
130310000,0.0324,0.013523,0.002678,0.000431,0.016219
130311000,0.0324,0.013523,0.002678,0.000431,0.015514
130312000,0.0324,0.013523,0.002678,0.000431,0.013986
130313000,0.0324,0.013523,0.002678,0.000431,0.013281
130314000,0.0324,0.013523,0.002678,0.000431,0.013398
130315000,0.0324,0.013523,0.002678,0.000431,0.013868
130316000,0.0324,0.013523,0.002678,0.000431,0.014103
130317000,0.0324,0.013523,0.002678,0.000431,0.013633
130318000,0.0324,0.013523,0.002678,0.000431,0.013751
130319000,0.0324,0.013523,0.002678,0.000431,0.013751
130320000,0.0324,0.013523,0.002678,0.000431,0.013281
130321000,0.0324,0.013523,0.002678,0.000431,0.014809
130322000,0.0324,0.013523,0.002678,0.000431,0.012928
130323000,0.0324,0.013523,0.002678,0.000431,0.013281
130324000,0.0324,0.013523,0.002678,0.000431,0.015396
130325000,0.0324,0.013523,0.002678,0.000431,0.013751
130326000,0.0324,0.013523,0.002678,0.000431,0.009520
130327000,0.0324,0.013523,0.002678,0.000431,0.009990
130328000,0.0324,0.013523,0.002678,0.000431,0.009872
130329000,0.0324,0.013523,0.002678,0.000431,0.010460
130330000,0.0324,0.013523,0.002678,0.000431,0.009402
130331000,0.0324,0.013523,0.002678,0.000431,0.007992
130332000,0.0324,0.013523,0.002678,0.000431,0.007757
130333000,0.0324,0.013523,0.002678,0.000431,0.007169
130334000,0.0324,0.013523,0.002678,0.000431,0.007522
130335000,0.0324,0.013523,0.002678,0.000431,0.008697
130336000,0.0324,0.013523,0.002678,0.000431,0.007522
130337000,0.0324,0.013523,0.002678,0.000431,0.006699
130338000,0.0324,0.013523,0.002678,0.000431,0.008227
130339000,0.0324,0.013523,0.002678,0.000431,0.006111
130340000,0.0324,0.013523,0.002678,0.000431,0.005876
130341000,0.0324,0.013523,0.002678,0.000431,0.005524
130342000,0.0324,0.013523,0.002678,0.000431,0.005759
130343000,0.0324,0.013523,0.002678,0.000431,0.004819
130344000,0.0324,0.013523,0.002678,0.000431,0.005171
130345000,0.0324,0.013523,0.002678,0.000431,0.005171
130346000,0.0324,0.013523,0.002678,0.000431,0.005171
130347000,0.0324,0.013523,0.002678,0.000431,0.004936
130348000,0.0324,0.013523,0.002678,0.000431,0.005054
130349000,0.0324,0.013523,0.002678,0.000431,0.005054
130350000,0.0324,0.013523,0.002678,0.000431,0.004936
130351000,0.0324,0.013523,0.002678,0.000431,0.005171
130352000,0.0324,0.013523,0.002678,0.000431,0.004701
130353000,0.0324,0.013523,0.002678,0.000431,0.005289
130354000,0.0324,0.013523,0.002678,0.000431,0.004701
130355000,0.0324,0.013523,0.002678,0.000431,0.005641
130356000,0.0324,0.013523,0.002678,0.000431,0.004701
130357000,0.0324,0.013523,0.002678,0.000431,0.003408
130358000,0.0324,0.013523,0.002678,0.000431,0.004584
130359000,0.0324,0.013523,0.002678,0.000431,0.003996
130360000,0.0324,0.013523,0.002678,0.000431,0.004231
130361000,0.0324,0.013523,0.002678,0.000431,0.004113
130362000,0.0324,0.013523,0.002678,0.000431,0.003878
130363000,0.0324,0.013523,0.002678,0.000431,0.004466
130364000,0.0324,0.013523,0.002678,0.000431,0.003996
130365000,0.0324,0.013523,0.002678,0.000431,0.004231
130366000,0.0324,0.013523,0.002678,0.000431,0.003878
130367000,0.0324,0.013523,0.002678,0.000431,0.004349
130368000,0.0324,0.013523,0.002678,0.000431,0.004231
130369000,0.0324,0.013523,0.002678,0.000431,0.005406
130370000,0.0324,0.013523,0.002678,0.000431,0.003173
130371000,0.0324,0.013523,0.002678,0.000431,0.003291
130372000,0.0324,0.013523,0.002678,0.000431,0.003056
130373000,0.0324,0.013523,0.002678,0.000431,0.003408
130374000,0.0324,0.013523,0.002678,0.000431,0.003643
