Cycle,Area(mm^2),PeakDynamic(W),SubthresholdLeakage(W),GateLeakage(W),RunTimeDynamic(W)
70000000,0.0324,0.013523,0.002678,0.000431,0.000940
70001000,0.0324,0.013523,0.002678,0.000431,0.000940
70002000,0.0324,0.013523,0.002678,0.000431,0.000705
70003000,0.0324,0.013523,0.002678,0.000431,0.000940
70004000,0.0324,0.013523,0.002678,0.000431,0.000940
70005000,0.0324,0.013523,0.002678,0.000431,0.000823
70006000,0.0324,0.013523,0.002678,0.000431,0.000823
70007000,0.0324,0.013523,0.002678,0.000431,0.000940
70008000,0.0324,0.013523,0.002678,0.000431,0.000823
70009000,0.0324,0.013523,0.002678,0.000431,0.000940
70010000,0.0324,0.013523,0.002678,0.000431,0.000823
70011000,0.0324,0.013523,0.002678,0.000431,0.000940
70012000,0.0324,0.013523,0.002678,0.000431,0.000823
70013000,0.0324,0.013523,0.002678,0.000431,0.000823
70014000,0.0324,0.013523,0.002678,0.000431,0.000940
70015000,0.0324,0.013523,0.002678,0.000431,0.000940
70016000,0.0324,0.013523,0.002678,0.000431,0.000823
70017000,0.0324,0.013523,0.002678,0.000431,0.000823
70018000,0.0324,0.013523,0.002678,0.000431,0.000940
70019000,0.0324,0.013523,0.002678,0.000431,0.000940
70020000,0.0324,0.013523,0.002678,0.000431,0.000823
70021000,0.0324,0.013523,0.002678,0.000431,0.000823
70022000,0.0324,0.013523,0.002678,0.000431,0.000940
70023000,0.0324,0.013523,0.002678,0.000431,0.000940
70024000,0.0324,0.013523,0.002678,0.000431,0.000823
70025000,0.0324,0.013523,0.002678,0.000431,0.000823
70026000,0.0324,0.013523,0.002678,0.000431,0.000940
70027000,0.0324,0.013523,0.002678,0.000431,0.000823
70028000,0.0324,0.013523,0.002678,0.000431,0.000940
70029000,0.0324,0.013523,0.002678,0.000431,0.000823
70030000,0.0324,0.013523,0.002678,0.000431,0.000940
70031000,0.0324,0.013523,0.002678,0.000431,0.000823
70032000,0.0324,0.013523,0.002678,0.000431,0.000823
70033000,0.0324,0.013523,0.002678,0.000431,0.000940
70034000,0.0324,0.013523,0.002678,0.000431,0.000940
70035000,0.0324,0.013523,0.002678,0.000431,0.000823
70036000,0.0324,0.013523,0.002678,0.000431,0.000823
70037000,0.0324,0.013523,0.002678,0.000431,0.000705
70038000,0.0324,0.013523,0.002678,0.000431,0.000940
70039000,0.0324,0.013523,0.002678,0.000431,0.000940
70040000,0.0324,0.013523,0.002678,0.000431,0.000823
70041000,0.0324,0.013523,0.002678,0.000431,0.000823
70042000,0.0324,0.013523,0.002678,0.000431,0.000705
70043000,0.0324,0.013523,0.002678,0.000431,0.000940
70044000,0.0324,0.013523,0.002678,0.000431,0.000940
70045000,0.0324,0.013523,0.002678,0.000431,0.000705
70046000,0.0324,0.013523,0.002678,0.000431,0.000940
70047000,0.0324,0.013523,0.002678,0.000431,0.000823
70048000,0.0324,0.013523,0.002678,0.000431,0.000823
70049000,0.0324,0.013523,0.002678,0.000431,0.000940
70050000,0.0324,0.013523,0.002678,0.000431,0.000940
70051000,0.0324,0.013523,0.002678,0.000431,0.000823
70052000,0.0324,0.013523,0.002678,0.000431,0.000823
70053000,0.0324,0.013523,0.002678,0.000431,0.000940
70054000,0.0324,0.013523,0.002678,0.000431,0.000823
70055000,0.0324,0.013523,0.002678,0.000431,0.000940
70056000,0.0324,0.013523,0.002678,0.000431,0.000823
70057000,0.0324,0.013523,0.002678,0.000431,0.000940
70058000,0.0324,0.013523,0.002678,0.000431,0.000940
70059000,0.0324,0.013523,0.002678,0.000431,0.000705
70060000,0.0324,0.013523,0.002678,0.000431,0.000940
70061000,0.0324,0.013523,0.002678,0.000431,0.000940
70062000,0.0324,0.013523,0.002678,0.000431,0.000940
70063000,0.0324,0.013523,0.002678,0.000431,0.000705
70064000,0.0324,0.013523,0.002678,0.000431,0.000940
70065000,0.0324,0.013523,0.002678,0.000431,0.000940
70066000,0.0324,0.013523,0.002678,0.000431,0.000823
70067000,0.0324,0.013523,0.002678,0.000431,0.000823
70068000,0.0324,0.013523,0.002678,0.000431,0.000940
70069000,0.0324,0.013523,0.002678,0.000431,0.000940
70070000,0.0324,0.013523,0.002678,0.000431,0.000823
70071000,0.0324,0.013523,0.002678,0.000431,0.000823
70072000,0.0324,0.013523,0.002678,0.000431,0.000940
70073000,0.0324,0.013523,0.002678,0.000431,0.000823
70074000,0.0324,0.013523,0.002678,0.000431,0.000940
70075000,0.0324,0.013523,0.002678,0.000431,0.000823
70076000,0.0324,0.013523,0.002678,0.000431,0.000940
70077000,0.0324,0.013523,0.002678,0.000431,0.000823
70078000,0.0324,0.013523,0.002678,0.000431,0.000823
70079000,0.0324,0.013523,0.002678,0.000431,0.000940
70080000,0.0324,0.013523,0.002678,0.000431,0.000940
70081000,0.0324,0.013523,0.002678,0.000431,0.000823
70082000,0.0324,0.013523,0.002678,0.000431,0.000823
70083000,0.0324,0.013523,0.002678,0.000431,0.000940
70084000,0.0324,0.013523,0.002678,0.000431,0.000940
70085000,0.0324,0.013523,0.002678,0.000431,0.000823
70086000,0.0324,0.013523,0.002678,0.000431,0.000823
70087000,0.0324,0.013523,0.002678,0.000431,0.000940
70088000,0.0324,0.013523,0.002678,0.000431,0.000823
70089000,0.0324,0.013523,0.002678,0.000431,0.000940
70090000,0.0324,0.013523,0.002678,0.000431,0.000823
70091000,0.0324,0.013523,0.002678,0.000431,0.000940
70092000,0.0324,0.013523,0.002678,0.000431,0.000823
70093000,0.0324,0.013523,0.002678,0.000431,0.000823
70094000,0.0324,0.013523,0.002678,0.000431,0.000940
70095000,0.0324,0.013523,0.002678,0.000431,0.000940
70096000,0.0324,0.013523,0.002678,0.000431,0.000823
70097000,0.0324,0.013523,0.002678,0.000431,0.000823
70098000,0.0324,0.013523,0.002678,0.000431,0.000940
70099000,0.0324,0.013523,0.002678,0.000431,0.000940
70100000,0.0324,0.013523,0.002678,0.000431,0.000705
70101000,0.0324,0.013523,0.002678,0.000431,0.000940
70102000,0.0324,0.013523,0.002678,0.000431,0.000940
70103000,0.0324,0.013523,0.002678,0.000431,0.000940
70104000,0.0324,0.013523,0.002678,0.000431,0.000705
70105000,0.0324,0.013523,0.002678,0.000431,0.000940
70106000,0.0324,0.013523,0.002678,0.000431,0.000940
70107000,0.0324,0.013523,0.002678,0.000431,0.000823
70108000,0.0324,0.013523,0.002678,0.000431,0.000823
70109000,0.0324,0.013523,0.002678,0.000431,0.000940
70110000,0.0324,0.013523,0.002678,0.000431,0.000940
70111000,0.0324,0.013523,0.002678,0.000431,0.000823
70112000,0.0324,0.013523,0.002678,0.000431,0.000823
70113000,0.0324,0.013523,0.002678,0.000431,0.000940
70114000,0.0324,0.013523,0.002678,0.000431,0.000823
70115000,0.0324,0.013523,0.002678,0.000431,0.000940
70116000,0.0324,0.013523,0.002678,0.000431,0.000823
70117000,0.0324,0.013523,0.002678,0.000431,0.000940
70118000,0.0324,0.013523,0.002678,0.000431,0.000940
70119000,0.0324,0.013523,0.002678,0.000431,0.000705
70120000,0.0324,0.013523,0.002678,0.000431,0.000940
70121000,0.0324,0.013523,0.002678,0.000431,0.000940
70122000,0.0324,0.013523,0.002678,0.000431,0.000940
70123000,0.0324,0.013523,0.002678,0.000431,0.000705
70124000,0.0324,0.013523,0.002678,0.000431,0.000940
70125000,0.0324,0.013523,0.002678,0.000431,0.000940
70126000,0.0324,0.013523,0.002678,0.000431,0.000823
70127000,0.0324,0.013523,0.002678,0.000431,0.000823
70128000,0.0324,0.013523,0.002678,0.000431,0.000940
70129000,0.0324,0.013523,0.002678,0.000431,0.000823
70130000,0.0324,0.013523,0.002678,0.000431,0.000940
70131000,0.0324,0.013523,0.002678,0.000431,0.000823
70132000,0.0324,0.013523,0.002678,0.000431,0.000940
70133000,0.0324,0.013523,0.002678,0.000431,0.000823
70134000,0.0324,0.013523,0.002678,0.000431,0.000823
70135000,0.0324,0.013523,0.002678,0.000431,0.000940
70136000,0.0324,0.013523,0.002678,0.000431,0.000940
70137000,0.0324,0.013523,0.002678,0.000431,0.000823
70138000,0.0324,0.013523,0.002678,0.000431,0.000823
70139000,0.0324,0.013523,0.002678,0.000431,0.000940
70140000,0.0324,0.013523,0.002678,0.000431,0.000940
70141000,0.0324,0.013523,0.002678,0.000431,0.000705
70142000,0.0324,0.013523,0.002678,0.000431,0.000940
70143000,0.0324,0.013523,0.002678,0.000431,0.000940
70144000,0.0324,0.013523,0.002678,0.000431,0.000940
70145000,0.0324,0.013523,0.002678,0.000431,0.000823
70146000,0.0324,0.013523,0.002678,0.000431,0.000823
70147000,0.0324,0.013523,0.002678,0.000431,0.000940
70148000,0.0324,0.013523,0.002678,0.000431,0.000823
70149000,0.0324,0.013523,0.002678,0.000431,0.000940
70150000,0.0324,0.013523,0.002678,0.000431,0.000823
70151000,0.0324,0.013523,0.002678,0.000431,0.000940
70152000,0.0324,0.013523,0.002678,0.000431,0.000823
70153000,0.0324,0.013523,0.002678,0.000431,0.000823
70154000,0.0324,0.013523,0.002678,0.000431,0.000940
70155000,0.0324,0.013523,0.002678,0.000431,0.000940
70156000,0.0324,0.013523,0.002678,0.000431,0.000823
70157000,0.0324,0.013523,0.002678,0.000431,0.000823
70158000,0.0324,0.013523,0.002678,0.000431,0.000940
70159000,0.0324,0.013523,0.002678,0.000431,0.000940
70160000,0.0324,0.013523,0.002678,0.000431,0.000705
70161000,0.0324,0.013523,0.002678,0.000431,0.000940
70162000,0.0324,0.013523,0.002678,0.000431,0.000940
70163000,0.0324,0.013523,0.002678,0.000431,0.000940
70164000,0.0324,0.013523,0.002678,0.000431,0.000705
70165000,0.0324,0.013523,0.002678,0.000431,0.000940
70166000,0.0324,0.013523,0.002678,0.000431,0.000940
70167000,0.0324,0.013523,0.002678,0.000431,0.000823
70168000,0.0324,0.013523,0.002678,0.000431,0.000823
70169000,0.0324,0.013523,0.002678,0.000431,0.000940
70170000,0.0324,0.013523,0.002678,0.000431,0.000940
70171000,0.0324,0.013523,0.002678,0.000431,0.000823
70172000,0.0324,0.013523,0.002678,0.000431,0.000823
70173000,0.0324,0.013523,0.002678,0.000431,0.000940
70174000,0.0324,0.013523,0.002678,0.000431,0.000823
70175000,0.0324,0.013523,0.002678,0.000431,0.000823
70176000,0.0324,0.013523,0.002678,0.000431,0.000940
70177000,0.0324,0.013523,0.002678,0.000431,0.000940
70178000,0.0324,0.013523,0.002678,0.000431,0.000940
70179000,0.0324,0.013523,0.002678,0.000431,0.000705
70180000,0.0324,0.013523,0.002678,0.000431,0.000940
70181000,0.0324,0.013523,0.002678,0.000431,0.000940
70182000,0.0324,0.013523,0.002678,0.000431,0.000823
70183000,0.0324,0.013523,0.002678,0.000431,0.000823
70184000,0.0324,0.013523,0.002678,0.000431,0.000940
70185000,0.0324,0.013523,0.002678,0.000431,0.000940
70186000,0.0324,0.013523,0.002678,0.000431,0.000823
70187000,0.0324,0.013523,0.002678,0.000431,0.000823
70188000,0.0324,0.013523,0.002678,0.000431,0.000940
70189000,0.0324,0.013523,0.002678,0.000431,0.000823
70190000,0.0324,0.013523,0.002678,0.000431,0.000940
70191000,0.0324,0.013523,0.002678,0.000431,0.000823
70192000,0.0324,0.013523,0.002678,0.000431,0.000940
70193000,0.0324,0.013523,0.002678,0.000431,0.000823
70194000,0.0324,0.013523,0.002678,0.000431,0.000823
70195000,0.0324,0.013523,0.002678,0.000431,0.000940
70196000,0.0324,0.013523,0.002678,0.000431,0.000940
70197000,0.0324,0.013523,0.002678,0.000431,0.000823
70198000,0.0324,0.013523,0.002678,0.000431,0.000823
70199000,0.0324,0.013523,0.002678,0.000431,0.000940
70200000,0.0324,0.013523,0.002678,0.000431,0.000940
70201000,0.0324,0.013523,0.002678,0.000431,0.000823
70202000,0.0324,0.013523,0.002678,0.000431,0.000823
70203000,0.0324,0.013523,0.002678,0.000431,0.000940
70204000,0.0324,0.013523,0.002678,0.000431,0.000940
70205000,0.0324,0.013523,0.002678,0.000431,0.000823
70206000,0.0324,0.013523,0.002678,0.000431,0.000823
70207000,0.0324,0.013523,0.002678,0.000431,0.000940
70208000,0.0324,0.013523,0.002678,0.000431,0.000823
70209000,0.0324,0.013523,0.002678,0.000431,0.000940
70210000,0.0324,0.013523,0.002678,0.000431,0.000823
70211000,0.0324,0.013523,0.002678,0.000431,0.000940
70212000,0.0324,0.013523,0.002678,0.000431,0.000823
70213000,0.0324,0.013523,0.002678,0.000431,0.000823
70214000,0.0324,0.013523,0.002678,0.000431,0.000940
70215000,0.0324,0.013523,0.002678,0.000431,0.000940
70216000,0.0324,0.013523,0.002678,0.000431,0.000705
70217000,0.0324,0.013523,0.002678,0.000431,0.000940
70218000,0.0324,0.013523,0.002678,0.000431,0.000940
70219000,0.0324,0.013523,0.002678,0.000431,0.000940
70220000,0.0324,0.013523,0.002678,0.000431,0.000705
70221000,0.0324,0.013523,0.002678,0.000431,0.000940
70222000,0.0324,0.013523,0.002678,0.000431,0.000940
70223000,0.0324,0.013523,0.002678,0.000431,0.000823
70224000,0.0324,0.013523,0.002678,0.000431,0.000823
70225000,0.0324,0.013523,0.002678,0.000431,0.000940
70226000,0.0324,0.013523,0.002678,0.000431,0.000940
70227000,0.0324,0.013523,0.002678,0.000431,0.000823
70228000,0.0324,0.013523,0.002678,0.000431,0.000823
70229000,0.0324,0.013523,0.002678,0.000431,0.000940
70230000,0.0324,0.013523,0.002678,0.000431,0.000823
70231000,0.0324,0.013523,0.002678,0.000431,0.000940
70232000,0.0324,0.013523,0.002678,0.000431,0.000823
70233000,0.0324,0.013523,0.002678,0.000431,0.000940
70234000,0.0324,0.013523,0.002678,0.000431,0.000823
70235000,0.0324,0.013523,0.002678,0.000431,0.000823
70236000,0.0324,0.013523,0.002678,0.000431,0.000940
70237000,0.0324,0.013523,0.002678,0.000431,0.000940
70238000,0.0324,0.013523,0.002678,0.000431,0.000940
70239000,0.0324,0.013523,0.002678,0.000431,0.000705
70240000,0.0324,0.013523,0.002678,0.000431,0.000940
70241000,0.0324,0.013523,0.002678,0.000431,0.000940
70242000,0.0324,0.013523,0.002678,0.000431,0.000823
70243000,0.0324,0.013523,0.002678,0.000431,0.000823
70244000,0.0324,0.013523,0.002678,0.000431,0.000940
70245000,0.0324,0.013523,0.002678,0.000431,0.000940
70246000,0.0324,0.013523,0.002678,0.000431,0.000823
70247000,0.0324,0.013523,0.002678,0.000431,0.000823
70248000,0.0324,0.013523,0.002678,0.000431,0.000940
70249000,0.0324,0.013523,0.002678,0.000431,0.000823
70250000,0.0324,0.013523,0.002678,0.000431,0.000940
70251000,0.0324,0.013523,0.002678,0.000431,0.000823
70252000,0.0324,0.013523,0.002678,0.000431,0.000940
70253000,0.0324,0.013523,0.002678,0.000431,0.000823
70254000,0.0324,0.013523,0.002678,0.000431,0.000823
70255000,0.0324,0.013523,0.002678,0.000431,0.000940
70256000,0.0324,0.013523,0.002678,0.000431,0.000940
70257000,0.0324,0.013523,0.002678,0.000431,0.000823
70258000,0.0324,0.013523,0.002678,0.000431,0.000823
70259000,0.0324,0.013523,0.002678,0.000431,0.000940
70260000,0.0324,0.013523,0.002678,0.000431,0.000940
70261000,0.0324,0.013523,0.002678,0.000431,0.000823
70262000,0.0324,0.013523,0.002678,0.000431,0.000823
70263000,0.0324,0.013523,0.002678,0.000431,0.000940
70264000,0.0324,0.013523,0.002678,0.000431,0.000823
70265000,0.0324,0.013523,0.002678,0.000431,0.000940
70266000,0.0324,0.013523,0.002678,0.000431,0.208965
70267000,0.0324,0.013523,0.002678,0.000431,0.575536
70268000,0.0324,0.013523,0.002678,0.000431,0.402652
70269000,0.0324,0.013523,0.002678,0.000431,0.132102
70270000,0.0324,0.013523,0.002678,0.000431,0.137390
70271000,0.0324,0.013523,0.002678,0.000431,0.619844
70272000,0.0324,0.013523,0.002678,0.000431,0.266201
70273000,0.0324,0.013523,0.002678,0.000431,0.317561
70274000,0.0324,0.013523,0.002678,0.000431,0.237172
70275000,0.0324,0.013523,0.002678,0.000431,0.145147
70276000,0.0324,0.013523,0.002678,0.000431,0.138213
70277000,0.0324,0.013523,0.002678,0.000431,0.208142
70278000,0.0324,0.013523,0.002678,0.000431,0.424042
70279000,0.0324,0.013523,0.002678,0.000431,0.109184
70280000,0.0324,0.013523,0.002678,0.000431,0.087088
70281000,0.0324,0.013523,0.002678,0.000431,0.067814
70282000,0.0324,0.013523,0.002678,0.000431,0.065228
70283000,0.0324,0.013523,0.002678,0.000431,0.048069
70284000,0.0324,0.013523,0.002678,0.000431,0.048657
70285000,0.0324,0.013523,0.002678,0.000431,0.039137
70286000,0.0324,0.013523,0.002678,0.000431,0.038432
70287000,0.0324,0.013523,0.002678,0.000431,0.027149
70288000,0.0324,0.013523,0.002678,0.000431,0.027149
70289000,0.0324,0.013523,0.002678,0.000431,0.026091
70290000,0.0324,0.013523,0.002678,0.000431,0.026091
70291000,0.0324,0.013523,0.002678,0.000431,0.024211
70292000,0.0324,0.013523,0.002678,0.000431,0.021978
70293000,0.0324,0.013523,0.002678,0.000431,0.023976
70294000,0.0324,0.013523,0.002678,0.000431,0.025974
70295000,0.0324,0.013523,0.002678,0.000431,0.022448
70296000,0.0324,0.013523,0.002678,0.000431,0.021273
70297000,0.0324,0.013523,0.002678,0.000431,0.019980
70298000,0.0324,0.013523,0.002678,0.000431,0.016924
70299000,0.0324,0.013523,0.002678,0.000431,0.014338
70300000,0.0324,0.013523,0.002678,0.000431,0.016924
70301000,0.0324,0.013523,0.002678,0.000431,0.015984
70302000,0.0324,0.013523,0.002678,0.000431,0.011870
70303000,0.0324,0.013523,0.002678,0.000431,0.012928
70304000,0.0324,0.013523,0.002678,0.000431,0.013751
70305000,0.0324,0.013523,0.002678,0.000431,0.010930
70306000,0.0324,0.013523,0.002678,0.000431,0.011988
70307000,0.0324,0.013523,0.002678,0.000431,0.012223
70308000,0.0324,0.013523,0.002678,0.000431,0.011753
70309000,0.0324,0.013523,0.002678,0.000431,0.011400
70310000,0.0324,0.013523,0.002678,0.000431,0.011165
70311000,0.0324,0.013523,0.002678,0.000431,0.012223
70312000,0.0324,0.013523,0.002678,0.000431,0.011635
70313000,0.0324,0.013523,0.002678,0.000431,0.007992
70314000,0.0324,0.013523,0.002678,0.000431,0.007874
70315000,0.0324,0.013523,0.002678,0.000431,0.008462
70316000,0.0324,0.013523,0.002678,0.000431,0.008580
70317000,0.0324,0.013523,0.002678,0.000431,0.007052
70318000,0.0324,0.013523,0.002678,0.000431,0.006229
70319000,0.0324,0.013523,0.002678,0.000431,0.007169
70320000,0.0324,0.013523,0.002678,0.000431,0.006464
70321000,0.0324,0.013523,0.002678,0.000431,0.004701
70322000,0.0324,0.013523,0.002678,0.000431,0.005406
70323000,0.0324,0.013523,0.002678,0.000431,0.004819
70324000,0.0324,0.013523,0.002678,0.000431,0.005171
70325000,0.0324,0.013523,0.002678,0.000431,0.005171
70326000,0.0324,0.013523,0.002678,0.000431,0.004936
70327000,0.0324,0.013523,0.002678,0.000431,0.006229
70328000,0.0324,0.013523,0.002678,0.000431,0.005641
70329000,0.0324,0.013523,0.002678,0.000431,0.004231
70330000,0.0324,0.013523,0.002678,0.000431,0.004113
70331000,0.0324,0.013523,0.002678,0.000431,0.004349
70332000,0.0324,0.013523,0.002678,0.000431,0.004349
70333000,0.0324,0.013523,0.002678,0.000431,0.003996
70334000,0.0324,0.013523,0.002678,0.000431,0.004349
70335000,0.0324,0.013523,0.002678,0.000431,0.003996
70336000,0.0324,0.013523,0.002678,0.000431,0.004466
70337000,0.0324,0.013523,0.002678,0.000431,0.004113
70338000,0.0324,0.013523,0.002678,0.000431,0.006347
70339000,0.0324,0.013523,0.002678,0.000431,0.003408
70340000,0.0324,0.013523,0.002678,0.000431,0.003408
70341000,0.0324,0.013523,0.002678,0.000431,0.003408
70342000,0.0324,0.013523,0.002678,0.000431,0.003291
70343000,0.0324,0.013523,0.002678,0.000431,0.003526
70344000,0.0324,0.013523,0.002678,0.000431,0.005054
70345000,0.0324,0.013523,0.002678,0.000431,0.002703
70346000,0.0324,0.013523,0.002678,0.000431,0.002468
70347000,0.0324,0.013523,0.002678,0.000431,0.002468
70348000,0.0324,0.013523,0.002678,0.000431,0.002703
70349000,0.0324,0.013523,0.002678,0.000431,0.002351
70350000,0.0324,0.013523,0.002678,0.000431,0.004113
70351000,0.0324,0.013523,0.002678,0.000431,0.001763
70352000,0.0324,0.013523,0.002678,0.000431,0.001645
70353000,0.0324,0.013523,0.002678,0.000431,0.001645
70354000,0.0324,0.013523,0.002678,0.000431,0.001645
70355000,0.0324,0.013523,0.002678,0.000431,0.001763
70356000,0.0324,0.013523,0.002678,0.000431,0.001528
70357000,0.0324,0.013523,0.002678,0.000431,0.001880
70358000,0.0324,0.013523,0.002678,0.000431,0.001645
70359000,0.0324,0.013523,0.002678,0.000431,0.001645
70360000,0.0324,0.013523,0.002678,0.000431,0.001528
70361000,0.0324,0.013523,0.002678,0.000431,0.001763
70362000,0.0324,0.013523,0.002678,0.000431,0.001763
70363000,0.0324,0.013523,0.002678,0.000431,0.001528
70364000,0.0324,0.013523,0.002678,0.000431,0.001763
70365000,0.0324,0.013523,0.002678,0.000431,0.001528
70366000,0.0324,0.013523,0.002678,0.000431,0.001880
70367000,0.0324,0.013523,0.002678,0.000431,0.001645
70368000,0.0324,0.013523,0.002678,0.000431,0.001645
70369000,0.0324,0.013523,0.002678,0.000431,0.001645
70370000,0.0324,0.013523,0.002678,0.000431,0.001645
70371000,0.0324,0.013523,0.002678,0.000431,0.004113
70372000,0.0324,0.013523,0.002678,0.000431,0.000705
70373000,0.0324,0.013523,0.002678,0.000431,0.000940
70374000,0.0324,0.013523,0.002678,0.000431,0.000705
70375000,0.0324,0.013523,0.002678,0.000431,0.000940
70376000,0.0324,0.013523,0.002678,0.000431,0.000823
70377000,0.0324,0.013523,0.002678,0.000431,0.000823
70378000,0.0324,0.013523,0.002678,0.000431,0.000940
70379000,0.0324,0.013523,0.002678,0.000431,0.000705
70380000,0.0324,0.013523,0.002678,0.000431,0.000940
70381000,0.0324,0.013523,0.002678,0.000431,0.000823
