Cycle,Area(mm^2),PeakDynamic(W),SubthresholdLeakage(W),GateLeakage(W),RunTimeDynamic(W)
96000000,0.0324,0.013523,0.002678,0.000431,0.003173
96001000,0.0324,0.013523,0.002678,0.000431,0.003056
96002000,0.0324,0.013523,0.002678,0.000431,0.003173
96003000,0.0324,0.013523,0.002678,0.000431,0.003526
96004000,0.0324,0.013523,0.002678,0.000431,0.002938
96005000,0.0324,0.013523,0.002678,0.000431,0.003291
96006000,0.0324,0.013523,0.002678,0.000431,0.003643
96007000,0.0324,0.013523,0.002678,0.000431,0.002586
96008000,0.0324,0.013523,0.002678,0.000431,0.003291
96009000,0.0324,0.013523,0.002678,0.000431,0.003291
96010000,0.0324,0.013523,0.002678,0.000431,0.003173
96011000,0.0324,0.013523,0.002678,0.000431,0.003291
96012000,0.0324,0.013523,0.002678,0.000431,0.003056
96013000,0.0324,0.013523,0.002678,0.000431,0.003291
96014000,0.0324,0.013523,0.002678,0.000431,0.003408
96015000,0.0324,0.013523,0.002678,0.000431,0.003878
96016000,0.0324,0.013523,0.002678,0.000431,0.002703
96017000,0.0324,0.013523,0.002678,0.000431,0.002351
96018000,0.0324,0.013523,0.002678,0.000431,0.002351
96019000,0.0324,0.013523,0.002678,0.000431,0.002703
96020000,0.0324,0.013523,0.002678,0.000431,0.001998
96021000,0.0324,0.013523,0.002678,0.000431,0.002703
96022000,0.0324,0.013523,0.002678,0.000431,0.002233
96023000,0.0324,0.013523,0.002678,0.000431,0.002468
96024000,0.0324,0.013523,0.002678,0.000431,0.002586
96025000,0.0324,0.013523,0.002678,0.000431,0.002116
96026000,0.0324,0.013523,0.002678,0.000431,0.002586
96027000,0.0324,0.013523,0.002678,0.000431,0.002351
96028000,0.0324,0.013523,0.002678,0.000431,0.002351
96029000,0.0324,0.013523,0.002678,0.000431,0.002586
96030000,0.0324,0.013523,0.002678,0.000431,0.002351
96031000,0.0324,0.013523,0.002678,0.000431,0.002351
96032000,0.0324,0.013523,0.002678,0.000431,0.002586
96033000,0.0324,0.013523,0.002678,0.000431,0.002116
96034000,0.0324,0.013523,0.002678,0.000431,0.002586
96035000,0.0324,0.013523,0.002678,0.000431,0.002233
96036000,0.0324,0.013523,0.002678,0.000431,0.002468
96037000,0.0324,0.013523,0.002678,0.000431,0.002586
96038000,0.0324,0.013523,0.002678,0.000431,0.002351
96039000,0.0324,0.013523,0.002678,0.000431,0.002586
96040000,0.0324,0.013523,0.002678,0.000431,0.002233
96041000,0.0324,0.013523,0.002678,0.000431,0.002468
96042000,0.0324,0.013523,0.002678,0.000431,0.002586
96043000,0.0324,0.013523,0.002678,0.000431,0.002233
96044000,0.0324,0.013523,0.002678,0.000431,0.002468
96045000,0.0324,0.013523,0.002678,0.000431,0.005759
96046000,0.0324,0.013523,0.002678,0.000431,0.001645
96047000,0.0324,0.013523,0.002678,0.000431,0.001645
96048000,0.0324,0.013523,0.002678,0.000431,0.001645
96049000,0.0324,0.013523,0.002678,0.000431,0.001410
96050000,0.0324,0.013523,0.002678,0.000431,0.001645
96051000,0.0324,0.013523,0.002678,0.000431,0.001645
96052000,0.0324,0.013523,0.002678,0.000431,0.001645
96053000,0.0324,0.013523,0.002678,0.000431,0.001410
96054000,0.0324,0.013523,0.002678,0.000431,0.001645
96055000,0.0324,0.013523,0.002678,0.000431,0.001645
96056000,0.0324,0.013523,0.002678,0.000431,0.001410
96057000,0.0324,0.013523,0.002678,0.000431,0.001880
96058000,0.0324,0.013523,0.002678,0.000431,0.001175
96059000,0.0324,0.013523,0.002678,0.000431,0.001880
96060000,0.0324,0.013523,0.002678,0.000431,0.001528
96061000,0.0324,0.013523,0.002678,0.000431,0.001528
96062000,0.0324,0.013523,0.002678,0.000431,0.001880
96063000,0.0324,0.013523,0.002678,0.000431,0.001175
96064000,0.0324,0.013523,0.002678,0.000431,0.001880
96065000,0.0324,0.013523,0.002678,0.000431,0.001410
96066000,0.0324,0.013523,0.002678,0.000431,0.001645
96067000,0.0324,0.013523,0.002678,0.000431,0.001645
96068000,0.0324,0.013523,0.002678,0.000431,0.001410
96069000,0.0324,0.013523,0.002678,0.000431,0.001645
96070000,0.0324,0.013523,0.002678,0.000431,0.001645
96071000,0.0324,0.013523,0.002678,0.000431,0.001410
96072000,0.0324,0.013523,0.002678,0.000431,0.001645
96073000,0.0324,0.013523,0.002678,0.000431,0.001410
96074000,0.0324,0.013523,0.002678,0.000431,0.001645
96075000,0.0324,0.013523,0.002678,0.000431,0.001880
96076000,0.0324,0.013523,0.002678,0.000431,0.001175
96077000,0.0324,0.013523,0.002678,0.000431,0.001880
96078000,0.0324,0.013523,0.002678,0.000431,0.001293
96079000,0.0324,0.013523,0.002678,0.000431,0.001763
96080000,0.0324,0.013523,0.002678,0.000431,0.001880
96081000,0.0324,0.013523,0.002678,0.000431,0.001175
96082000,0.0324,0.013523,0.002678,0.000431,0.001880
96083000,0.0324,0.013523,0.002678,0.000431,0.001293
96084000,0.0324,0.013523,0.002678,0.000431,0.001763
96085000,0.0324,0.013523,0.002678,0.000431,0.001645
96086000,0.0324,0.013523,0.002678,0.000431,0.001410
96087000,0.0324,0.013523,0.002678,0.000431,0.001645
96088000,0.0324,0.013523,0.002678,0.000431,0.001528
96089000,0.0324,0.013523,0.002678,0.000431,0.001528
96090000,0.0324,0.013523,0.002678,0.000431,0.001645
96091000,0.0324,0.013523,0.002678,0.000431,0.001645
96092000,0.0324,0.013523,0.002678,0.000431,0.001410
96093000,0.0324,0.013523,0.002678,0.000431,0.001645
96094000,0.0324,0.013523,0.002678,0.000431,0.001410
96095000,0.0324,0.013523,0.002678,0.000431,0.001880
96096000,0.0324,0.013523,0.002678,0.000431,0.001410
96097000,0.0324,0.013523,0.002678,0.000431,0.001645
96098000,0.0324,0.013523,0.002678,0.000431,0.001528
96099000,0.0324,0.013523,0.002678,0.000431,0.001528
96100000,0.0324,0.013523,0.002678,0.000431,0.001880
96101000,0.0324,0.013523,0.002678,0.000431,0.001175
96102000,0.0324,0.013523,0.002678,0.000431,0.001880
96103000,0.0324,0.013523,0.002678,0.000431,0.001528
96104000,0.0324,0.013523,0.002678,0.000431,0.001528
96105000,0.0324,0.013523,0.002678,0.000431,0.001645
96106000,0.0324,0.013523,0.002678,0.000431,0.001410
96107000,0.0324,0.013523,0.002678,0.000431,0.001645
96108000,0.0324,0.013523,0.002678,0.000431,0.001645
96109000,0.0324,0.013523,0.002678,0.000431,0.001645
96110000,0.0324,0.013523,0.002678,0.000431,0.001410
96111000,0.0324,0.013523,0.002678,0.000431,0.001645
96112000,0.0324,0.013523,0.002678,0.000431,0.001645
96113000,0.0324,0.013523,0.002678,0.000431,0.001645
96114000,0.0324,0.013523,0.002678,0.000431,0.001410
96115000,0.0324,0.013523,0.002678,0.000431,0.001645
96116000,0.0324,0.013523,0.002678,0.000431,0.001293
96117000,0.0324,0.013523,0.002678,0.000431,0.001763
96118000,0.0324,0.013523,0.002678,0.000431,0.001880
96119000,0.0324,0.013523,0.002678,0.000431,0.001175
96120000,0.0324,0.013523,0.002678,0.000431,0.001763
96121000,0.0324,0.013523,0.002678,0.000431,0.001175
96122000,0.0324,0.013523,0.002678,0.000431,0.000705
96123000,0.0324,0.013523,0.002678,0.000431,0.000940
96124000,0.0324,0.013523,0.002678,0.000431,0.000823
96125000,0.0324,0.013523,0.002678,0.000431,0.000823
96126000,0.0324,0.013523,0.002678,0.000431,0.000940
96127000,0.0324,0.013523,0.002678,0.000431,0.000823
96128000,0.0324,0.013523,0.002678,0.000431,0.000823
96129000,0.0324,0.013523,0.002678,0.000431,0.000940
96130000,0.0324,0.013523,0.002678,0.000431,0.000705
96131000,0.0324,0.013523,0.002678,0.000431,0.000940
96132000,0.0324,0.013523,0.002678,0.000431,0.000823
96133000,0.0324,0.013523,0.002678,0.000431,0.000823
96134000,0.0324,0.013523,0.002678,0.000431,0.000940
96135000,0.0324,0.013523,0.002678,0.000431,0.000823
96136000,0.0324,0.013523,0.002678,0.000431,0.000823
96137000,0.0324,0.013523,0.002678,0.000431,0.000940
96138000,0.0324,0.013523,0.002678,0.000431,0.000705
96139000,0.0324,0.013523,0.002678,0.000431,0.000940
96140000,0.0324,0.013523,0.002678,0.000431,0.000823
96141000,0.0324,0.013523,0.002678,0.000431,0.000823
96142000,0.0324,0.013523,0.002678,0.000431,0.000940
96143000,0.0324,0.013523,0.002678,0.000431,0.000823
96144000,0.0324,0.013523,0.002678,0.000431,0.000823
96145000,0.0324,0.013523,0.002678,0.000431,0.000940
96146000,0.0324,0.013523,0.002678,0.000431,0.000705
96147000,0.0324,0.013523,0.002678,0.000431,0.000940
96148000,0.0324,0.013523,0.002678,0.000431,0.000823
96149000,0.0324,0.013523,0.002678,0.000431,0.000823
96150000,0.0324,0.013523,0.002678,0.000431,0.000940
96151000,0.0324,0.013523,0.002678,0.000431,0.000823
96152000,0.0324,0.013523,0.002678,0.000431,0.000823
96153000,0.0324,0.013523,0.002678,0.000431,0.000940
96154000,0.0324,0.013523,0.002678,0.000431,0.000705
96155000,0.0324,0.013523,0.002678,0.000431,0.000940
96156000,0.0324,0.013523,0.002678,0.000431,0.000823
96157000,0.0324,0.013523,0.002678,0.000431,0.000823
96158000,0.0324,0.013523,0.002678,0.000431,0.000940
96159000,0.0324,0.013523,0.002678,0.000431,0.000823
96160000,0.0324,0.013523,0.002678,0.000431,0.000823
96161000,0.0324,0.013523,0.002678,0.000431,0.000823
96162000,0.0324,0.013523,0.002678,0.000431,0.000823
96163000,0.0324,0.013523,0.002678,0.000431,0.000940
96164000,0.0324,0.013523,0.002678,0.000431,0.000823
96165000,0.0324,0.013523,0.002678,0.000431,0.000823
96166000,0.0324,0.013523,0.002678,0.000431,0.000940
96167000,0.0324,0.013523,0.002678,0.000431,0.000823
96168000,0.0324,0.013523,0.002678,0.000431,0.000823
96169000,0.0324,0.013523,0.002678,0.000431,0.211198
96170000,0.0324,0.013523,0.002678,0.000431,0.532520
96171000,0.0324,0.013523,0.002678,0.000431,0.494794
96172000,0.0324,0.013523,0.002678,0.000431,0.133512
96173000,0.0324,0.013523,0.002678,0.000431,0.134805
96174000,0.0324,0.013523,0.002678,0.000431,0.601627
96175000,0.0324,0.013523,0.002678,0.000431,0.268434
96176000,0.0324,0.013523,0.002678,0.000431,0.292880
96177000,0.0324,0.013523,0.002678,0.000431,0.230120
96178000,0.0324,0.013523,0.002678,0.000431,0.149378
96179000,0.0324,0.013523,0.002678,0.000431,0.117058
96180000,0.0324,0.013523,0.002678,0.000431,0.327786
96181000,0.0324,0.013523,0.002678,0.000431,0.334955
96182000,0.0324,0.013523,0.002678,0.000431,0.114472
96183000,0.0324,0.013523,0.002678,0.000431,0.089439
96184000,0.0324,0.013523,0.002678,0.000431,0.092730
96185000,0.0324,0.013523,0.002678,0.000431,0.071222
96186000,0.0324,0.013523,0.002678,0.000431,0.066756
96187000,0.0324,0.013523,0.002678,0.000431,0.053710
96188000,0.0324,0.013523,0.002678,0.000431,0.051477
96189000,0.0324,0.013523,0.002678,0.000431,0.035258
96190000,0.0324,0.013523,0.002678,0.000431,0.033143
96191000,0.0324,0.013523,0.002678,0.000431,0.021625
96192000,0.0324,0.013523,0.002678,0.000431,0.012105
96193000,0.0324,0.013523,0.002678,0.000431,0.012576
96194000,0.0324,0.013523,0.002678,0.000431,0.007757
96195000,0.0324,0.013523,0.002678,0.000431,0.007522
96196000,0.0324,0.013523,0.002678,0.000431,0.008932
96197000,0.0324,0.013523,0.002678,0.000431,0.008109
96198000,0.0324,0.013523,0.002678,0.000431,0.008345
96199000,0.0324,0.013523,0.002678,0.000431,0.003526
96200000,0.0324,0.013523,0.002678,0.000431,0.003173
96201000,0.0324,0.013523,0.002678,0.000431,0.003408
96202000,0.0324,0.013523,0.002678,0.000431,0.003173
96203000,0.0324,0.013523,0.002678,0.000431,0.003408
96204000,0.0324,0.013523,0.002678,0.000431,0.003408
96205000,0.0324,0.013523,0.002678,0.000431,0.003408
96206000,0.0324,0.013523,0.002678,0.000431,0.003173
96207000,0.0324,0.013523,0.002678,0.000431,0.003173
96208000,0.0324,0.013523,0.002678,0.000431,0.003526
96209000,0.0324,0.013523,0.002678,0.000431,0.003173
96210000,0.0324,0.013523,0.002678,0.000431,0.003291
96211000,0.0324,0.013523,0.002678,0.000431,0.004819
96212000,0.0324,0.013523,0.002678,0.000431,0.001528
96213000,0.0324,0.013523,0.002678,0.000431,0.001763
96214000,0.0324,0.013523,0.002678,0.000431,0.001645
96215000,0.0324,0.013523,0.002678,0.000431,0.001645
96216000,0.0324,0.013523,0.002678,0.000431,0.001880
96217000,0.0324,0.013523,0.002678,0.000431,0.001528
96218000,0.0324,0.013523,0.002678,0.000431,0.001645
96219000,0.0324,0.013523,0.002678,0.000431,0.004113
96220000,0.0324,0.013523,0.002678,0.000431,0.000823
96221000,0.0324,0.013523,0.002678,0.000431,0.000823
96222000,0.0324,0.013523,0.002678,0.000431,0.000823
96223000,0.0324,0.013523,0.002678,0.000431,0.000823
96224000,0.0324,0.013523,0.002678,0.000431,0.000823
96225000,0.0324,0.013523,0.002678,0.000431,0.000940
96226000,0.0324,0.013523,0.002678,0.000431,0.000823
96227000,0.0324,0.013523,0.002678,0.000431,0.000823
96228000,0.0324,0.013523,0.002678,0.000431,0.000705
96229000,0.0324,0.013523,0.002678,0.000431,0.000940
96230000,0.0324,0.013523,0.002678,0.000431,0.000940
96231000,0.0324,0.013523,0.002678,0.000431,0.001645
96232000,0.0324,0.013523,0.002678,0.000431,0.338129
96233000,0.0324,0.013523,0.002678,0.000431,0.679783
96234000,0.0324,0.013523,0.002678,0.000431,0.254449
96235000,0.0324,0.013523,0.002678,0.000431,0.138448
96236000,0.0324,0.013523,0.002678,0.000431,0.157135
96237000,0.0324,0.013523,0.002678,0.000431,0.579414
96238000,0.0324,0.013523,0.002678,0.000431,0.247984
96239000,0.0324,0.013523,0.002678,0.000431,0.318266
96240000,0.0324,0.013523,0.002678,0.000431,0.196507
96241000,0.0324,0.013523,0.002678,0.000431,0.147263
96242000,0.0324,0.013523,0.002678,0.000431,0.122112
96243000,0.0324,0.013523,0.002678,0.000431,0.308276
96244000,0.0324,0.013523,0.002678,0.000431,0.307454
96245000,0.0324,0.013523,0.002678,0.000431,0.059587
96246000,0.0324,0.013523,0.002678,0.000431,0.051477
96247000,0.0324,0.013523,0.002678,0.000431,0.045836
96248000,0.0324,0.013523,0.002678,0.000431,0.047599
96249000,0.0324,0.013523,0.002678,0.000431,0.032673
96250000,0.0324,0.013523,0.002678,0.000431,0.020215
96251000,0.0324,0.013523,0.002678,0.000431,0.022213
96252000,0.0324,0.013523,0.002678,0.000431,0.020215
96253000,0.0324,0.013523,0.002678,0.000431,0.017277
96254000,0.0324,0.013523,0.002678,0.000431,0.016571
96255000,0.0324,0.013523,0.002678,0.000431,0.011870
96256000,0.0324,0.013523,0.002678,0.000431,0.011048
96257000,0.0324,0.013523,0.002678,0.000431,0.007404
96258000,0.0324,0.013523,0.002678,0.000431,0.007169
96259000,0.0324,0.013523,0.002678,0.000431,0.007874
96260000,0.0324,0.013523,0.002678,0.000431,0.010578
96261000,0.0324,0.013523,0.002678,0.000431,0.003761
96262000,0.0324,0.013523,0.002678,0.000431,0.003056
96263000,0.0324,0.013523,0.002678,0.000431,0.003643
96264000,0.0324,0.013523,0.002678,0.000431,0.003408
96265000,0.0324,0.013523,0.002678,0.000431,0.003408
96266000,0.0324,0.013523,0.002678,0.000431,0.003408
96267000,0.0324,0.013523,0.002678,0.000431,0.003408
96268000,0.0324,0.013523,0.002678,0.000431,0.003408
96269000,0.0324,0.013523,0.002678,0.000431,0.004349
96270000,0.0324,0.013523,0.002678,0.000431,0.003996
96271000,0.0324,0.013523,0.002678,0.000431,0.002468
96272000,0.0324,0.013523,0.002678,0.000431,0.002586
96273000,0.0324,0.013523,0.002678,0.000431,0.002351
96274000,0.0324,0.013523,0.002678,0.000431,0.002703
96275000,0.0324,0.013523,0.002678,0.000431,0.004584
96276000,0.0324,0.013523,0.002678,0.000431,0.001763
96277000,0.0324,0.013523,0.002678,0.000431,0.001763
96278000,0.0324,0.013523,0.002678,0.000431,0.001645
96279000,0.0324,0.013523,0.002678,0.000431,0.001880
96280000,0.0324,0.013523,0.002678,0.000431,0.001645
96281000,0.0324,0.013523,0.002678,0.000431,0.002703
96282000,0.0324,0.013523,0.002678,0.000431,0.000823
96283000,0.0324,0.013523,0.002678,0.000431,0.000823
96284000,0.0324,0.013523,0.002678,0.000431,0.000823
96285000,0.0324,0.013523,0.002678,0.000431,0.000823
96286000,0.0324,0.013523,0.002678,0.000431,0.000940
96287000,0.0324,0.013523,0.002678,0.000431,0.000823
96288000,0.0324,0.013523,0.002678,0.000431,0.000823
96289000,0.0324,0.013523,0.002678,0.000431,0.000823
96290000,0.0324,0.013523,0.002678,0.000431,0.000823
96291000,0.0324,0.013523,0.002678,0.000431,0.000823
96292000,0.0324,0.013523,0.002678,0.000431,0.000823
96293000,0.0324,0.013523,0.002678,0.000431,0.000940
96294000,0.0324,0.013523,0.002678,0.000431,0.000705
96295000,0.0324,0.013523,0.002678,0.000431,0.000940
96296000,0.0324,0.013523,0.002678,0.000431,0.000705
96297000,0.0324,0.013523,0.002678,0.000431,0.000940
96298000,0.0324,0.013523,0.002678,0.000431,0.000823
96299000,0.0324,0.013523,0.002678,0.000431,0.000823
96300000,0.0324,0.013523,0.002678,0.000431,0.000940
96301000,0.0324,0.013523,0.002678,0.000431,0.000705
96302000,0.0324,0.013523,0.002678,0.000431,0.000940
96303000,0.0324,0.013523,0.002678,0.000431,0.000823
96304000,0.0324,0.013523,0.002678,0.000431,0.000823
96305000,0.0324,0.013523,0.002678,0.000431,0.000823
96306000,0.0324,0.013523,0.002678,0.000431,0.000823
96307000,0.0324,0.013523,0.002678,0.000431,0.000940
96308000,0.0324,0.013523,0.002678,0.000431,0.000705
96309000,0.0324,0.013523,0.002678,0.000431,0.000940
96310000,0.0324,0.013523,0.002678,0.000431,0.000823
96311000,0.0324,0.013523,0.002678,0.000431,0.000823
96312000,0.0324,0.013523,0.002678,0.000431,0.000705
96313000,0.0324,0.013523,0.002678,0.000431,0.071340
96314000,0.0324,0.013523,0.002678,0.000431,0.497262
96315000,0.0324,0.013523,0.002678,0.000431,0.583292
96316000,0.0324,0.013523,0.002678,0.000431,0.132572
96317000,0.0324,0.013523,0.002678,0.000431,0.133042
96318000,0.0324,0.013523,0.002678,0.000431,0.579296
96319000,0.0324,0.013523,0.002678,0.000431,0.268669
96320000,0.0324,0.013523,0.002678,0.000431,0.242461
96321000,0.0324,0.013523,0.002678,0.000431,0.290412
96322000,0.0324,0.013523,0.002678,0.000431,0.151259
96323000,0.0324,0.013523,0.002678,0.000431,0.162189
96324000,0.0324,0.013523,0.002678,0.000431,0.099429
96325000,0.0324,0.013523,0.002678,0.000431,0.486802
96326000,0.0324,0.013523,0.002678,0.000431,0.155490
96327000,0.0324,0.013523,0.002678,0.000431,0.089204
96328000,0.0324,0.013523,0.002678,0.000431,0.070869
96329000,0.0324,0.013523,0.002678,0.000431,0.059117
96330000,0.0324,0.013523,0.002678,0.000431,0.053123
96331000,0.0324,0.013523,0.002678,0.000431,0.035141
96332000,0.0324,0.013523,0.002678,0.000431,0.027149
96333000,0.0324,0.013523,0.002678,0.000431,0.026326
96334000,0.0324,0.013523,0.002678,0.000431,0.021390
96335000,0.0324,0.013523,0.002678,0.000431,0.024563
96336000,0.0324,0.013523,0.002678,0.000431,0.024916
96337000,0.0324,0.013523,0.002678,0.000431,0.020685
96338000,0.0324,0.013523,0.002678,0.000431,0.017864
96339000,0.0324,0.013523,0.002678,0.000431,0.013046
96340000,0.0324,0.013523,0.002678,0.000431,0.017277
96341000,0.0324,0.013523,0.002678,0.000431,0.013281
96342000,0.0324,0.013523,0.002678,0.000431,0.006817
96343000,0.0324,0.013523,0.002678,0.000431,0.006817
96344000,0.0324,0.013523,0.002678,0.000431,0.006817
96345000,0.0324,0.013523,0.002678,0.000431,0.006934
96346000,0.0324,0.013523,0.002678,0.000431,0.006934
96347000,0.0324,0.013523,0.002678,0.000431,0.008580
96348000,0.0324,0.013523,0.002678,0.000431,0.005759
96349000,0.0324,0.013523,0.002678,0.000431,0.006111
96350000,0.0324,0.013523,0.002678,0.000431,0.005994
96351000,0.0324,0.013523,0.002678,0.000431,0.005994
96352000,0.0324,0.013523,0.002678,0.000431,0.005994
96353000,0.0324,0.013523,0.002678,0.000431,0.009990
96354000,0.0324,0.013523,0.002678,0.000431,0.003408
96355000,0.0324,0.013523,0.002678,0.000431,0.002586
96356000,0.0324,0.013523,0.002678,0.000431,0.002703
96357000,0.0324,0.013523,0.002678,0.000431,0.002586
96358000,0.0324,0.013523,0.002678,0.000431,0.002468
96359000,0.0324,0.013523,0.002678,0.000431,0.002586
96360000,0.0324,0.013523,0.002678,0.000431,0.002703
96361000,0.0324,0.013523,0.002678,0.000431,0.002468
96362000,0.0324,0.013523,0.002678,0.000431,0.002586
96363000,0.0324,0.013523,0.002678,0.000431,0.002703
96364000,0.0324,0.013523,0.002678,0.000431,0.002586
96365000,0.0324,0.013523,0.002678,0.000431,0.002468
96366000,0.0324,0.013523,0.002678,0.000431,0.002586
96367000,0.0324,0.013523,0.002678,0.000431,0.002586
96368000,0.0324,0.013523,0.002678,0.000431,0.002703
96369000,0.0324,0.013523,0.002678,0.000431,0.002586
96370000,0.0324,0.013523,0.002678,0.000431,0.002468
96371000,0.0324,0.013523,0.002678,0.000431,0.004349
96372000,0.0324,0.013523,0.002678,0.000431,0.001763
96373000,0.0324,0.013523,0.002678,0.000431,0.001645
96374000,0.0324,0.013523,0.002678,0.000431,0.001763
96375000,0.0324,0.013523,0.002678,0.000431,0.001880
96376000,0.0324,0.013523,0.002678,0.000431,0.001763
96377000,0.0324,0.013523,0.002678,0.000431,0.001645
96378000,0.0324,0.013523,0.002678,0.000431,0.001763
96379000,0.0324,0.013523,0.002678,0.000431,0.001763
96380000,0.0324,0.013523,0.002678,0.000431,0.001763
96381000,0.0324,0.013523,0.002678,0.000431,0.001763
