Cycle,Area(mm^2),PeakDynamic(W),SubthresholdLeakage(W),GateLeakage(W),RunTimeDynamic(W)
9000000,0.0324,0.013523,0.002678,0.000431,0.000823
9001000,0.0324,0.013523,0.002678,0.000431,0.000823
9002000,0.0324,0.013523,0.002678,0.000431,0.000940
9003000,0.0324,0.013523,0.002678,0.000431,0.000940
9004000,0.0324,0.013523,0.002678,0.000431,0.000705
9005000,0.0324,0.013523,0.002678,0.000431,0.000940
9006000,0.0324,0.013523,0.002678,0.000431,0.000940
9007000,0.0324,0.013523,0.002678,0.000431,0.000940
9008000,0.0324,0.013523,0.002678,0.000431,0.000705
9009000,0.0324,0.013523,0.002678,0.000431,0.000940
9010000,0.0324,0.013523,0.002678,0.000431,0.000940
9011000,0.0324,0.013523,0.002678,0.000431,0.000823
9012000,0.0324,0.013523,0.002678,0.000431,0.000823
9013000,0.0324,0.013523,0.002678,0.000431,0.000940
9014000,0.0324,0.013523,0.002678,0.000431,0.000823
9015000,0.0324,0.013523,0.002678,0.000431,0.000940
9016000,0.0324,0.013523,0.002678,0.000431,0.000823
9017000,0.0324,0.013523,0.002678,0.000431,0.000940
9018000,0.0324,0.013523,0.002678,0.000431,0.000823
9019000,0.0324,0.013523,0.002678,0.000431,0.000823
9020000,0.0324,0.013523,0.002678,0.000431,0.001058
9021000,0.0324,0.013523,0.002678,0.000431,0.000823
9022000,0.0324,0.013523,0.002678,0.000431,0.000940
9023000,0.0324,0.013523,0.002678,0.000431,0.000940
9024000,0.0324,0.013523,0.002678,0.000431,0.000823
9025000,0.0324,0.013523,0.002678,0.000431,0.000823
9026000,0.0324,0.013523,0.002678,0.000431,0.000940
9027000,0.0324,0.013523,0.002678,0.000431,0.000823
9028000,0.0324,0.013523,0.002678,0.000431,0.000940
9029000,0.0324,0.013523,0.002678,0.000431,0.000823
9030000,0.0324,0.013523,0.002678,0.000431,0.000940
9031000,0.0324,0.013523,0.002678,0.000431,0.000823
9032000,0.0324,0.013523,0.002678,0.000431,0.000823
9033000,0.0324,0.013523,0.002678,0.000431,0.000940
9034000,0.0324,0.013523,0.002678,0.000431,0.000940
9035000,0.0324,0.013523,0.002678,0.000431,0.000823
9036000,0.0324,0.013523,0.002678,0.000431,0.000823
9037000,0.0324,0.013523,0.002678,0.000431,0.000940
9038000,0.0324,0.013523,0.002678,0.000431,0.000940
9039000,0.0324,0.013523,0.002678,0.000431,0.000705
9040000,0.0324,0.013523,0.002678,0.000431,0.000940
9041000,0.0324,0.013523,0.002678,0.000431,0.000940
9042000,0.0324,0.013523,0.002678,0.000431,0.000823
9043000,0.0324,0.013523,0.002678,0.000431,0.000823
9044000,0.0324,0.013523,0.002678,0.000431,0.000940
9045000,0.0324,0.013523,0.002678,0.000431,0.000940
9046000,0.0324,0.013523,0.002678,0.000431,0.000823
9047000,0.0324,0.013523,0.002678,0.000431,0.072162
9048000,0.0324,0.013523,0.002678,0.000431,0.620079
9049000,0.0324,0.013523,0.002678,0.000431,0.543215
9050000,0.0324,0.013523,0.002678,0.000431,0.134452
9051000,0.0324,0.013523,0.002678,0.000431,0.132102
9052000,0.0324,0.013523,0.002678,0.000431,0.558259
9053000,0.0324,0.013523,0.002678,0.000431,0.242108
9054000,0.0324,0.013523,0.002678,0.000431,0.277367
9055000,0.0324,0.013523,0.002678,0.000431,0.287239
9056000,0.0324,0.013523,0.002678,0.000431,0.145617
9057000,0.0324,0.013523,0.002678,0.000431,0.170768
9058000,0.0324,0.013523,0.002678,0.000431,0.121994
9059000,0.0324,0.013523,0.002678,0.000431,0.501023
9060000,0.0324,0.013523,0.002678,0.000431,0.163364
9061000,0.0324,0.013523,0.002678,0.000431,0.100957
9062000,0.0324,0.013523,0.002678,0.000431,0.073690
9063000,0.0324,0.013523,0.002678,0.000431,0.058999
9064000,0.0324,0.013523,0.002678,0.000431,0.037727
9065000,0.0324,0.013523,0.002678,0.000431,0.034436
9066000,0.0324,0.013523,0.002678,0.000431,0.022800
9067000,0.0324,0.013523,0.002678,0.000431,0.020802
9068000,0.0324,0.013523,0.002678,0.000431,0.014338
9069000,0.0324,0.013523,0.002678,0.000431,0.015984
9070000,0.0324,0.013523,0.002678,0.000431,0.006817
9071000,0.0324,0.013523,0.002678,0.000431,0.006229
9072000,0.0324,0.013523,0.002678,0.000431,0.007639
9073000,0.0324,0.013523,0.002678,0.000431,0.004584
9074000,0.0324,0.013523,0.002678,0.000431,0.004701
9075000,0.0324,0.013523,0.002678,0.000431,0.004349
9076000,0.0324,0.013523,0.002678,0.000431,0.006111
9077000,0.0324,0.013523,0.002678,0.000431,0.005406
9078000,0.0324,0.013523,0.002678,0.000431,0.003408
9079000,0.0324,0.013523,0.002678,0.000431,0.003761
9080000,0.0324,0.013523,0.002678,0.000431,0.004819
9081000,0.0324,0.013523,0.002678,0.000431,0.003878
9082000,0.0324,0.013523,0.002678,0.000431,0.003526
9083000,0.0324,0.013523,0.002678,0.000431,0.000940
9084000,0.0324,0.013523,0.002678,0.000431,0.000823
9085000,0.0324,0.013523,0.002678,0.000431,0.000823
9086000,0.0324,0.013523,0.002678,0.000431,0.000940
9087000,0.0324,0.013523,0.002678,0.000431,0.000705
9088000,0.0324,0.013523,0.002678,0.000431,0.000940
9089000,0.0324,0.013523,0.002678,0.000431,0.179701
9090000,0.0324,0.013523,0.002678,0.000431,0.592342
9091000,0.0324,0.013523,0.002678,0.000431,0.514421
9092000,0.0324,0.013523,0.002678,0.000431,0.133982
9093000,0.0324,0.013523,0.002678,0.000431,0.133512
9094000,0.0324,0.013523,0.002678,0.000431,0.593282
9095000,0.0324,0.013523,0.002678,0.000431,0.238582
9096000,0.0324,0.013523,0.002678,0.000431,0.339069
9097000,0.0324,0.013523,0.002678,0.000431,0.216604
9098000,0.0324,0.013523,0.002678,0.000431,0.141034
9099000,0.0324,0.013523,0.002678,0.000431,0.146205
9100000,0.0324,0.013523,0.002678,0.000431,0.239052
9101000,0.0324,0.013523,0.002678,0.000431,0.412054
9102000,0.0324,0.013523,0.002678,0.000431,0.104247
9103000,0.0324,0.013523,0.002678,0.000431,0.081447
9104000,0.0324,0.013523,0.002678,0.000431,0.059822
9105000,0.0324,0.013523,0.002678,0.000431,0.051125
9106000,0.0324,0.013523,0.002678,0.000431,0.048069
9107000,0.0324,0.013523,0.002678,0.000431,0.033613
9108000,0.0324,0.013523,0.002678,0.000431,0.027972
9109000,0.0324,0.013523,0.002678,0.000431,0.030322
9110000,0.0324,0.013523,0.002678,0.000431,0.014456
9111000,0.0324,0.013523,0.002678,0.000431,0.016807
9112000,0.0324,0.013523,0.002678,0.000431,0.010695
9113000,0.0324,0.013523,0.002678,0.000431,0.007169
9114000,0.0324,0.013523,0.002678,0.000431,0.006582
9115000,0.0324,0.013523,0.002678,0.000431,0.001763
9116000,0.0324,0.013523,0.002678,0.000431,0.001763
9117000,0.0324,0.013523,0.002678,0.000431,0.001763
9118000,0.0324,0.013523,0.002678,0.000431,0.001880
9119000,0.0324,0.013523,0.002678,0.000431,0.001645
9120000,0.0324,0.013523,0.002678,0.000431,0.001763
9121000,0.0324,0.013523,0.002678,0.000431,0.001880
9122000,0.0324,0.013523,0.002678,0.000431,0.003643
9123000,0.0324,0.013523,0.002678,0.000431,0.000823
9124000,0.0324,0.013523,0.002678,0.000431,0.000823
9125000,0.0324,0.013523,0.002678,0.000431,0.000940
9126000,0.0324,0.013523,0.002678,0.000431,0.037609
9127000,0.0324,0.013523,0.002678,0.000431,0.605153
9128000,0.0324,0.013523,0.002678,0.000431,0.585878
9129000,0.0324,0.013523,0.002678,0.000431,0.133159
9130000,0.0324,0.013523,0.002678,0.000431,0.133394
9131000,0.0324,0.013523,0.002678,0.000431,0.534283
9132000,0.0324,0.013523,0.002678,0.000431,0.241285
9133000,0.0324,0.013523,0.002678,0.000431,0.289354
9134000,0.0324,0.013523,0.002678,0.000431,0.270315
9135000,0.0324,0.013523,0.002678,0.000431,0.145617
9136000,0.0324,0.013523,0.002678,0.000431,0.169123
9137000,0.0324,0.013523,0.002678,0.000431,0.100369
9138000,0.0324,0.013523,0.002678,0.000431,0.485274
9139000,0.0324,0.013523,0.002678,0.000431,0.143149
9140000,0.0324,0.013523,0.002678,0.000431,0.085678
9141000,0.0324,0.013523,0.002678,0.000431,0.061350
9142000,0.0324,0.013523,0.002678,0.000431,0.049009
9143000,0.0324,0.013523,0.002678,0.000431,0.035729
9144000,0.0324,0.013523,0.002678,0.000431,0.028559
9145000,0.0324,0.013523,0.002678,0.000431,0.025269
9146000,0.0324,0.013523,0.002678,0.000431,0.014809
9147000,0.0324,0.013523,0.002678,0.000431,0.015161
9148000,0.0324,0.013523,0.002678,0.000431,0.018334
9149000,0.0324,0.013523,0.002678,0.000431,0.007522
9150000,0.0324,0.013523,0.002678,0.000431,0.008462
9151000,0.0324,0.013523,0.002678,0.000431,0.009285
9152000,0.0324,0.013523,0.002678,0.000431,0.006229
9153000,0.0324,0.013523,0.002678,0.000431,0.005994
9154000,0.0324,0.013523,0.002678,0.000431,0.002703
9155000,0.0324,0.013523,0.002678,0.000431,0.002468
9156000,0.0324,0.013523,0.002678,0.000431,0.002586
9157000,0.0324,0.013523,0.002678,0.000431,0.002821
9158000,0.0324,0.013523,0.002678,0.000431,0.002233
9159000,0.0324,0.013523,0.002678,0.000431,0.002703
9160000,0.0324,0.013523,0.002678,0.000431,0.002468
9161000,0.0324,0.013523,0.002678,0.000431,0.002703
9162000,0.0324,0.013523,0.002678,0.000431,0.004701
9163000,0.0324,0.013523,0.002678,0.000431,0.001528
9164000,0.0324,0.013523,0.002678,0.000431,0.001645
9165000,0.0324,0.013523,0.002678,0.000431,0.002703
9166000,0.0324,0.013523,0.002678,0.000431,0.002116
9167000,0.0324,0.013523,0.002678,0.000431,0.000823
9168000,0.0324,0.013523,0.002678,0.000431,0.000823
9169000,0.0324,0.013523,0.002678,0.000431,0.000823
9170000,0.0324,0.013523,0.002678,0.000431,0.000823
9171000,0.0324,0.013523,0.002678,0.000431,0.000940
9172000,0.0324,0.013523,0.002678,0.000431,0.000705
9173000,0.0324,0.013523,0.002678,0.000431,0.000823
9174000,0.0324,0.013523,0.002678,0.000431,0.000940
9175000,0.0324,0.013523,0.002678,0.000431,0.000823
9176000,0.0324,0.013523,0.002678,0.000431,0.000823
9177000,0.0324,0.013523,0.002678,0.000431,0.000823
9178000,0.0324,0.013523,0.002678,0.000431,0.002351
9179000,0.0324,0.013523,0.002678,0.000431,0.438028
9180000,0.0324,0.013523,0.002678,0.000431,0.706932
9181000,0.0324,0.013523,0.002678,0.000431,0.136685
9182000,0.0324,0.013523,0.002678,0.000431,0.133512
9183000,0.0324,0.013523,0.002678,0.000431,0.307219
9184000,0.0324,0.013523,0.002678,0.000431,0.441671
9185000,0.0324,0.013523,0.002678,0.000431,0.253978
9186000,0.0324,0.013523,0.002678,0.000431,0.339304
9187000,0.0324,0.013523,0.002678,0.000431,0.163482
9188000,0.0324,0.013523,0.002678,0.000431,0.142679
9189000,0.0324,0.013523,0.002678,0.000431,0.117646
9190000,0.0324,0.013523,0.002678,0.000431,0.379381
9191000,0.0324,0.013523,0.002678,0.000431,0.312155
9192000,0.0324,0.013523,0.002678,0.000431,0.121054
9193000,0.0324,0.013523,0.002678,0.000431,0.096843
9194000,0.0324,0.013523,0.002678,0.000431,0.059822
9195000,0.0324,0.013523,0.002678,0.000431,0.046189
9196000,0.0324,0.013523,0.002678,0.000431,0.042663
9197000,0.0324,0.013523,0.002678,0.000431,0.033731
9198000,0.0324,0.013523,0.002678,0.000431,0.027972
9199000,0.0324,0.013523,0.002678,0.000431,0.021743
9200000,0.0324,0.013523,0.002678,0.000431,0.017042
9201000,0.0324,0.013523,0.002678,0.000431,0.021273
9202000,0.0324,0.013523,0.002678,0.000431,0.011283
9203000,0.0324,0.013523,0.002678,0.000431,0.009872
9204000,0.0324,0.013523,0.002678,0.000431,0.008109
9205000,0.0324,0.013523,0.002678,0.000431,0.007522
9206000,0.0324,0.013523,0.002678,0.000431,0.008815
9207000,0.0324,0.013523,0.002678,0.000431,0.008815
9208000,0.0324,0.013523,0.002678,0.000431,0.005876
9209000,0.0324,0.013523,0.002678,0.000431,0.006347
9210000,0.0324,0.013523,0.002678,0.000431,0.005876
9211000,0.0324,0.013523,0.002678,0.000431,0.005759
9212000,0.0324,0.013523,0.002678,0.000431,0.005406
9213000,0.0324,0.013523,0.002678,0.000431,0.007757
9214000,0.0324,0.013523,0.002678,0.000431,0.004349
9215000,0.0324,0.013523,0.002678,0.000431,0.005641
9216000,0.0324,0.013523,0.002678,0.000431,0.005054
9217000,0.0324,0.013523,0.002678,0.000431,0.003173
9218000,0.0324,0.013523,0.002678,0.000431,0.003761
9219000,0.0324,0.013523,0.002678,0.000431,0.003526
9220000,0.0324,0.013523,0.002678,0.000431,0.003408
9221000,0.0324,0.013523,0.002678,0.000431,0.003173
9222000,0.0324,0.013523,0.002678,0.000431,0.006817
9223000,0.0324,0.013523,0.002678,0.000431,0.003056
9224000,0.0324,0.013523,0.002678,0.000431,0.001410
9225000,0.0324,0.013523,0.002678,0.000431,0.001880
9226000,0.0324,0.013523,0.002678,0.000431,0.001880
9227000,0.0324,0.013523,0.002678,0.000431,0.001880
9228000,0.0324,0.013523,0.002678,0.000431,0.002351
9229000,0.0324,0.013523,0.002678,0.000431,0.000823
9230000,0.0324,0.013523,0.002678,0.000431,0.000940
9231000,0.0324,0.013523,0.002678,0.000431,0.000940
9232000,0.0324,0.013523,0.002678,0.000431,0.000823
9233000,0.0324,0.013523,0.002678,0.000431,0.000823
9234000,0.0324,0.013523,0.002678,0.000431,0.000940
9235000,0.0324,0.013523,0.002678,0.000431,0.000940
9236000,0.0324,0.013523,0.002678,0.000431,0.000823
9237000,0.0324,0.013523,0.002678,0.000431,0.000823
9238000,0.0324,0.013523,0.002678,0.000431,0.000940
9239000,0.0324,0.013523,0.002678,0.000431,0.000940
9240000,0.0324,0.013523,0.002678,0.000431,0.000823
9241000,0.0324,0.013523,0.002678,0.000431,0.000823
9242000,0.0324,0.013523,0.002678,0.000431,0.000940
9243000,0.0324,0.013523,0.002678,0.000431,0.000823
9244000,0.0324,0.013523,0.002678,0.000431,0.000940
9245000,0.0324,0.013523,0.002678,0.000431,0.000823
9246000,0.0324,0.013523,0.002678,0.000431,0.000940
9247000,0.0324,0.013523,0.002678,0.000431,0.000823
9248000,0.0324,0.013523,0.002678,0.000431,0.000823
9249000,0.0324,0.013523,0.002678,0.000431,0.000940
9250000,0.0324,0.013523,0.002678,0.000431,0.000940
9251000,0.0324,0.013523,0.002678,0.000431,0.000705
9252000,0.0324,0.013523,0.002678,0.000431,0.000940
9253000,0.0324,0.013523,0.002678,0.000431,0.000940
9254000,0.0324,0.013523,0.002678,0.000431,0.000940
9255000,0.0324,0.013523,0.002678,0.000431,0.000705
9256000,0.0324,0.013523,0.002678,0.000431,0.000940
9257000,0.0324,0.013523,0.002678,0.000431,0.000940
9258000,0.0324,0.013523,0.002678,0.000431,0.000823
9259000,0.0324,0.013523,0.002678,0.000431,0.000823
9260000,0.0324,0.013523,0.002678,0.000431,0.071105
9261000,0.0324,0.013523,0.002678,0.000431,0.652164
9262000,0.0324,0.013523,0.002678,0.000431,0.553793
9263000,0.0324,0.013523,0.002678,0.000431,0.138331
9264000,0.0324,0.013523,0.002678,0.000431,0.138213
9265000,0.0324,0.013523,0.002678,0.000431,0.593165
9266000,0.0324,0.013523,0.002678,0.000431,0.273841
9267000,0.0324,0.013523,0.002678,0.000431,0.301460
9268000,0.0324,0.013523,0.002678,0.000431,0.204617
9269000,0.0324,0.013523,0.002678,0.000431,0.148321
9270000,0.0324,0.013523,0.002678,0.000431,0.112474
9271000,0.0324,0.013523,0.002678,0.000431,0.370331
9272000,0.0324,0.013523,0.002678,0.000431,0.289237
9273000,0.0324,0.013523,0.002678,0.000431,0.088851
9274000,0.0324,0.013523,0.002678,0.000431,0.070047
9275000,0.0324,0.013523,0.002678,0.000431,0.053240
9276000,0.0324,0.013523,0.002678,0.000431,0.044308
9277000,0.0324,0.013523,0.002678,0.000431,0.029852
9278000,0.0324,0.013523,0.002678,0.000431,0.022918
9279000,0.0324,0.013523,0.002678,0.000431,0.014926
9280000,0.0324,0.013523,0.002678,0.000431,0.009872
9281000,0.0324,0.013523,0.002678,0.000431,0.009285
9282000,0.0324,0.013523,0.002678,0.000431,0.003408
9283000,0.0324,0.013523,0.002678,0.000431,0.003526
9284000,0.0324,0.013523,0.002678,0.000431,0.005406
9285000,0.0324,0.013523,0.002678,0.000431,0.002586
9286000,0.0324,0.013523,0.002678,0.000431,0.002468
9287000,0.0324,0.013523,0.002678,0.000431,0.002821
9288000,0.0324,0.013523,0.002678,0.000431,0.004584
9289000,0.0324,0.013523,0.002678,0.000431,0.001998
9290000,0.0324,0.013523,0.002678,0.000431,0.003996
9291000,0.0324,0.013523,0.002678,0.000431,0.000940
9292000,0.0324,0.013523,0.002678,0.000431,0.000940
9293000,0.0324,0.013523,0.002678,0.000431,0.000823
9294000,0.0324,0.013523,0.002678,0.000431,0.000823
9295000,0.0324,0.013523,0.002678,0.000431,0.000940
9296000,0.0324,0.013523,0.002678,0.000431,0.000940
9297000,0.0324,0.013523,0.002678,0.000431,0.000823
9298000,0.0324,0.013523,0.002678,0.000431,0.072162
9299000,0.0324,0.013523,0.002678,0.000431,0.601509
9300000,0.0324,0.013523,0.002678,0.000431,0.543803
9301000,0.0324,0.013523,0.002678,0.000431,0.133982
9302000,0.0324,0.013523,0.002678,0.000431,0.132572
9303000,0.0324,0.013523,0.002678,0.000431,0.570247
9304000,0.0324,0.013523,0.002678,0.000431,0.277484
9305000,0.0324,0.013523,0.002678,0.000431,0.239170
9306000,0.0324,0.013523,0.002678,0.000431,0.273488
9307000,0.0324,0.013523,0.002678,0.000431,0.145382
9308000,0.0324,0.013523,0.002678,0.000431,0.179348
9309000,0.0324,0.013523,0.002678,0.000431,0.090497
9310000,0.0324,0.013523,0.002678,0.000431,0.509250
9311000,0.0324,0.013523,0.002678,0.000431,0.138213
9312000,0.0324,0.013523,0.002678,0.000431,0.088029
9313000,0.0324,0.013523,0.002678,0.000431,0.066874
9314000,0.0324,0.013523,0.002678,0.000431,0.057119
9315000,0.0324,0.013523,0.002678,0.000431,0.038079
9316000,0.0324,0.013523,0.002678,0.000431,0.030675
9317000,0.0324,0.013523,0.002678,0.000431,0.023741
9318000,0.0324,0.013523,0.002678,0.000431,0.017982
9319000,0.0324,0.013523,0.002678,0.000431,0.015044
9320000,0.0324,0.013523,0.002678,0.000431,0.017747
9321000,0.0324,0.013523,0.002678,0.000431,0.010930
9322000,0.0324,0.013523,0.002678,0.000431,0.004349
9323000,0.0324,0.013523,0.002678,0.000431,0.006582
9324000,0.0324,0.013523,0.002678,0.000431,0.003056
9325000,0.0324,0.013523,0.002678,0.000431,0.003291
9326000,0.0324,0.013523,0.002678,0.000431,0.002703
9327000,0.0324,0.013523,0.002678,0.000431,0.004349
9328000,0.0324,0.013523,0.002678,0.000431,0.001645
9329000,0.0324,0.013523,0.002678,0.000431,0.001763
9330000,0.0324,0.013523,0.002678,0.000431,0.005289
9331000,0.0324,0.013523,0.002678,0.000431,0.000940
9332000,0.0324,0.013523,0.002678,0.000431,0.002351
9333000,0.0324,0.013523,0.002678,0.000431,0.480220
9334000,0.0324,0.013523,0.002678,0.000431,0.707520
9335000,0.0324,0.013523,0.002678,0.000431,0.133042
9336000,0.0324,0.013523,0.002678,0.000431,0.134570
9337000,0.0324,0.013523,0.002678,0.000431,0.383259
9338000,0.0324,0.013523,0.002678,0.000431,0.387020
9339000,0.0324,0.013523,0.002678,0.000431,0.262323
9340000,0.0324,0.013523,0.002678,0.000431,0.369626
9341000,0.0324,0.013523,0.002678,0.000431,0.150671
9342000,0.0324,0.013523,0.002678,0.000431,0.171826
9343000,0.0324,0.013523,0.002678,0.000431,0.085208
9344000,0.0324,0.013523,0.002678,0.000431,0.507134
9345000,0.0324,0.013523,0.002678,0.000431,0.126460
9346000,0.0324,0.013523,0.002678,0.000431,0.079919
9347000,0.0324,0.013523,0.002678,0.000431,0.062055
9348000,0.0324,0.013523,0.002678,0.000431,0.051947
9349000,0.0324,0.013523,0.002678,0.000431,0.039372
9350000,0.0324,0.013523,0.002678,0.000431,0.027031
9351000,0.0324,0.013523,0.002678,0.000431,0.018687
9352000,0.0324,0.013523,0.002678,0.000431,0.016454
9353000,0.0324,0.013523,0.002678,0.000431,0.012693
9354000,0.0324,0.013523,0.002678,0.000431,0.009637
9355000,0.0324,0.013523,0.002678,0.000431,0.008345
9356000,0.0324,0.013523,0.002678,0.000431,0.005406
9357000,0.0324,0.013523,0.002678,0.000431,0.008462
9358000,0.0324,0.013523,0.002678,0.000431,0.003291
9359000,0.0324,0.013523,0.002678,0.000431,0.003526
9360000,0.0324,0.013523,0.002678,0.000431,0.003291
9361000,0.0324,0.013523,0.002678,0.000431,0.005054
9362000,0.0324,0.013523,0.002678,0.000431,0.006464
9363000,0.0324,0.013523,0.002678,0.000431,0.000823
9364000,0.0324,0.013523,0.002678,0.000431,0.000940
9365000,0.0324,0.013523,0.002678,0.000431,0.000705
9366000,0.0324,0.013523,0.002678,0.000431,0.000940
9367000,0.0324,0.013523,0.002678,0.000431,0.000705
9368000,0.0324,0.013523,0.002678,0.000431,0.000823
9369000,0.0324,0.013523,0.002678,0.000431,0.000940
9370000,0.0324,0.013523,0.002678,0.000431,0.000823
9371000,0.0324,0.013523,0.002678,0.000431,0.000823
9372000,0.0324,0.013523,0.002678,0.000431,0.000823
9373000,0.0324,0.013523,0.002678,0.000431,0.000705
9374000,0.0324,0.013523,0.002678,0.000431,0.000940
9375000,0.0324,0.013523,0.002678,0.000431,0.000940
9376000,0.0324,0.013523,0.002678,0.000431,0.000705
9377000,0.0324,0.013523,0.002678,0.000431,0.000940
9378000,0.0324,0.013523,0.002678,0.000431,0.225066
9379000,0.0324,0.013523,0.002678,0.000431,0.685424
9380000,0.0324,0.013523,0.002678,0.000431,0.350116
9381000,0.0324,0.013523,0.002678,0.000431,0.132102
9382000,0.0324,0.013523,0.002678,0.000431,0.138448
9383000,0.0324,0.013523,0.002678,0.000431,0.602685
9384000,0.0324,0.013523,0.002678,0.000431,0.227300
9385000,0.0324,0.013523,0.002678,0.000431,0.319559
9386000,0.0324,0.013523,0.002678,0.000431,0.235526
9387000,0.0324,0.013523,0.002678,0.000431,0.143384
9388000,0.0324,0.013523,0.002678,0.000431,0.132807
9389000,0.0324,0.013523,0.002678,0.000431,0.261500
