Cycle,Area(mm^2),PeakDynamic(W),SubthresholdLeakage(W),GateLeakage(W),RunTimeDynamic(W)
18000000,0.0324,0.013523,0.002678,0.000431,0.001998
18001000,0.0324,0.013523,0.002678,0.000431,0.001880
18002000,0.0324,0.013523,0.002678,0.000431,0.002116
18003000,0.0324,0.013523,0.002678,0.000431,0.002233
18004000,0.0324,0.013523,0.002678,0.000431,0.001998
18005000,0.0324,0.013523,0.002678,0.000431,0.002116
18006000,0.0324,0.013523,0.002678,0.000431,0.001998
18007000,0.0324,0.013523,0.002678,0.000431,0.001998
18008000,0.0324,0.013523,0.002678,0.000431,0.002233
18009000,0.0324,0.013523,0.002678,0.000431,0.002116
18010000,0.0324,0.013523,0.002678,0.000431,0.002116
18011000,0.0324,0.013523,0.002678,0.000431,0.002351
18012000,0.0324,0.013523,0.002678,0.000431,0.001645
18013000,0.0324,0.013523,0.002678,0.000431,0.002351
18014000,0.0324,0.013523,0.002678,0.000431,0.002116
18015000,0.0324,0.013523,0.002678,0.000431,0.001763
18016000,0.0324,0.013523,0.002678,0.000431,0.002116
18017000,0.0324,0.013523,0.002678,0.000431,0.002351
18018000,0.0324,0.013523,0.002678,0.000431,0.002116
18019000,0.0324,0.013523,0.002678,0.000431,0.001998
18020000,0.0324,0.013523,0.002678,0.000431,0.002233
18021000,0.0324,0.013523,0.002678,0.000431,0.002116
18022000,0.0324,0.013523,0.002678,0.000431,0.002233
18023000,0.0324,0.013523,0.002678,0.000431,0.002116
18024000,0.0324,0.013523,0.002678,0.000431,0.001880
18025000,0.0324,0.013523,0.002678,0.000431,0.001880
18026000,0.0324,0.013523,0.002678,0.000431,0.001880
18027000,0.0324,0.013523,0.002678,0.000431,0.002351
18028000,0.0324,0.013523,0.002678,0.000431,0.001998
18029000,0.0324,0.013523,0.002678,0.000431,0.001998
18030000,0.0324,0.013523,0.002678,0.000431,0.002351
18031000,0.0324,0.013523,0.002678,0.000431,0.001763
18032000,0.0324,0.013523,0.002678,0.000431,0.001998
18033000,0.0324,0.013523,0.002678,0.000431,0.002233
18034000,0.0324,0.013523,0.002678,0.000431,0.002351
18035000,0.0324,0.013523,0.002678,0.000431,0.002116
18036000,0.0324,0.013523,0.002678,0.000431,0.002116
18037000,0.0324,0.013523,0.002678,0.000431,0.001880
18038000,0.0324,0.013523,0.002678,0.000431,0.002116
18039000,0.0324,0.013523,0.002678,0.000431,0.001998
18040000,0.0324,0.013523,0.002678,0.000431,0.002351
18041000,0.0324,0.013523,0.002678,0.000431,0.002116
18042000,0.0324,0.013523,0.002678,0.000431,0.001763
18043000,0.0324,0.013523,0.002678,0.000431,0.002116
18044000,0.0324,0.013523,0.002678,0.000431,0.002116
18045000,0.0324,0.013523,0.002678,0.000431,0.001998
18046000,0.0324,0.013523,0.002678,0.000431,0.001880
18047000,0.0324,0.013523,0.002678,0.000431,0.002116
18048000,0.0324,0.013523,0.002678,0.000431,0.001998
18049000,0.0324,0.013523,0.002678,0.000431,0.002116
18050000,0.0324,0.013523,0.002678,0.000431,0.002233
18051000,0.0324,0.013523,0.002678,0.000431,0.001998
18052000,0.0324,0.013523,0.002678,0.000431,0.002351
18053000,0.0324,0.013523,0.002678,0.000431,0.002233
18054000,0.0324,0.013523,0.002678,0.000431,0.002116
18055000,0.0324,0.013523,0.002678,0.000431,0.002233
18056000,0.0324,0.013523,0.002678,0.000431,0.002116
18057000,0.0324,0.013523,0.002678,0.000431,0.001880
18058000,0.0324,0.013523,0.002678,0.000431,0.002233
18059000,0.0324,0.013523,0.002678,0.000431,0.001998
18060000,0.0324,0.013523,0.002678,0.000431,0.001880
18061000,0.0324,0.013523,0.002678,0.000431,0.001763
18062000,0.0324,0.013523,0.002678,0.000431,0.002233
18063000,0.0324,0.013523,0.002678,0.000431,0.001998
18064000,0.0324,0.013523,0.002678,0.000431,0.001410
18065000,0.0324,0.013523,0.002678,0.000431,0.002586
18066000,0.0324,0.013523,0.002678,0.000431,0.002233
18067000,0.0324,0.013523,0.002678,0.000431,0.001763
18068000,0.0324,0.013523,0.002678,0.000431,0.001763
18069000,0.0324,0.013523,0.002678,0.000431,0.001998
18070000,0.0324,0.013523,0.002678,0.000431,0.002233
18071000,0.0324,0.013523,0.002678,0.000431,0.001880
18072000,0.0324,0.013523,0.002678,0.000431,0.001763
18073000,0.0324,0.013523,0.002678,0.000431,0.002116
18074000,0.0324,0.013523,0.002678,0.000431,0.001763
18075000,0.0324,0.013523,0.002678,0.000431,0.002233
18076000,0.0324,0.013523,0.002678,0.000431,0.001880
18077000,0.0324,0.013523,0.002678,0.000431,0.001880
18078000,0.0324,0.013523,0.002678,0.000431,0.002116
18079000,0.0324,0.013523,0.002678,0.000431,0.001880
18080000,0.0324,0.013523,0.002678,0.000431,0.001645
18081000,0.0324,0.013523,0.002678,0.000431,0.002468
18082000,0.0324,0.013523,0.002678,0.000431,0.002116
18083000,0.0324,0.013523,0.002678,0.000431,0.001998
18084000,0.0324,0.013523,0.002678,0.000431,0.002233
18085000,0.0324,0.013523,0.002678,0.000431,0.002351
18086000,0.0324,0.013523,0.002678,0.000431,0.002116
18087000,0.0324,0.013523,0.002678,0.000431,0.002351
18088000,0.0324,0.013523,0.002678,0.000431,0.001998
18089000,0.0324,0.013523,0.002678,0.000431,0.002116
18090000,0.0324,0.013523,0.002678,0.000431,0.001998
18091000,0.0324,0.013523,0.002678,0.000431,0.002116
18092000,0.0324,0.013523,0.002678,0.000431,0.002233
18093000,0.0324,0.013523,0.002678,0.000431,0.002116
18094000,0.0324,0.013523,0.002678,0.000431,0.002233
18095000,0.0324,0.013523,0.002678,0.000431,0.002233
18096000,0.0324,0.013523,0.002678,0.000431,0.002233
18097000,0.0324,0.013523,0.002678,0.000431,0.002351
18098000,0.0324,0.013523,0.002678,0.000431,0.002116
18099000,0.0324,0.013523,0.002678,0.000431,0.001763
18100000,0.0324,0.013523,0.002678,0.000431,0.001763
18101000,0.0324,0.013523,0.002678,0.000431,0.001880
18102000,0.0324,0.013523,0.002678,0.000431,0.002233
18103000,0.0324,0.013523,0.002678,0.000431,0.001645
18104000,0.0324,0.013523,0.002678,0.000431,0.002116
18105000,0.0324,0.013523,0.002678,0.000431,0.001998
18106000,0.0324,0.013523,0.002678,0.000431,0.002233
18107000,0.0324,0.013523,0.002678,0.000431,0.001880
18108000,0.0324,0.013523,0.002678,0.000431,0.001645
18109000,0.0324,0.013523,0.002678,0.000431,0.002233
18110000,0.0324,0.013523,0.002678,0.000431,0.001880
18111000,0.0324,0.013523,0.002678,0.000431,0.002351
18112000,0.0324,0.013523,0.002678,0.000431,0.002116
18113000,0.0324,0.013523,0.002678,0.000431,0.002116
18114000,0.0324,0.013523,0.002678,0.000431,0.002233
18115000,0.0324,0.013523,0.002678,0.000431,0.002233
18116000,0.0324,0.013523,0.002678,0.000431,0.001998
18117000,0.0324,0.013523,0.002678,0.000431,0.002116
18118000,0.0324,0.013523,0.002678,0.000431,0.001763
18119000,0.0324,0.013523,0.002678,0.000431,0.001998
18120000,0.0324,0.013523,0.002678,0.000431,0.002351
18121000,0.0324,0.013523,0.002678,0.000431,0.001528
18122000,0.0324,0.013523,0.002678,0.000431,0.002468
18123000,0.0324,0.013523,0.002678,0.000431,0.002116
18124000,0.0324,0.013523,0.002678,0.000431,0.001880
18125000,0.0324,0.013523,0.002678,0.000431,0.002586
18126000,0.0324,0.013523,0.002678,0.000431,0.001880
18127000,0.0324,0.013523,0.002678,0.000431,0.002351
18128000,0.0324,0.013523,0.002678,0.000431,0.001880
18129000,0.0324,0.013523,0.002678,0.000431,0.001880
18130000,0.0324,0.013523,0.002678,0.000431,0.002586
18131000,0.0324,0.013523,0.002678,0.000431,0.002116
18132000,0.0324,0.013523,0.002678,0.000431,0.001645
18133000,0.0324,0.013523,0.002678,0.000431,0.002116
18134000,0.0324,0.013523,0.002678,0.000431,0.001880
18135000,0.0324,0.013523,0.002678,0.000431,0.002233
18136000,0.0324,0.013523,0.002678,0.000431,0.001998
18137000,0.0324,0.013523,0.002678,0.000431,0.001998
18138000,0.0324,0.013523,0.002678,0.000431,0.002233
18139000,0.0324,0.013523,0.002678,0.000431,0.001880
18140000,0.0324,0.013523,0.002678,0.000431,0.002468
18141000,0.0324,0.013523,0.002678,0.000431,0.001880
18142000,0.0324,0.013523,0.002678,0.000431,0.001645
18143000,0.0324,0.013523,0.002678,0.000431,0.002351
18144000,0.0324,0.013523,0.002678,0.000431,0.001763
18145000,0.0324,0.013523,0.002678,0.000431,0.001880
18146000,0.0324,0.013523,0.002678,0.000431,0.002116
18147000,0.0324,0.013523,0.002678,0.000431,0.001998
18148000,0.0324,0.013523,0.002678,0.000431,0.002351
18149000,0.0324,0.013523,0.002678,0.000431,0.001998
18150000,0.0324,0.013523,0.002678,0.000431,0.002233
18151000,0.0324,0.013523,0.002678,0.000431,0.002116
18152000,0.0324,0.013523,0.002678,0.000431,0.001763
18153000,0.0324,0.013523,0.002678,0.000431,0.002116
18154000,0.0324,0.013523,0.002678,0.000431,0.001763
18155000,0.0324,0.013523,0.002678,0.000431,0.002233
18156000,0.0324,0.013523,0.002678,0.000431,0.002351
18157000,0.0324,0.013523,0.002678,0.000431,0.001763
18158000,0.0324,0.013523,0.002678,0.000431,0.002233
18159000,0.0324,0.013523,0.002678,0.000431,0.001998
18160000,0.0324,0.013523,0.002678,0.000431,0.001880
18161000,0.0324,0.013523,0.002678,0.000431,0.002116
18162000,0.0324,0.013523,0.002678,0.000431,0.002233
18163000,0.0324,0.013523,0.002678,0.000431,0.002116
18164000,0.0324,0.013523,0.002678,0.000431,0.002233
18165000,0.0324,0.013523,0.002678,0.000431,0.002116
18166000,0.0324,0.013523,0.002678,0.000431,0.001998
18167000,0.0324,0.013523,0.002678,0.000431,0.001998
18168000,0.0324,0.013523,0.002678,0.000431,0.001998
18169000,0.0324,0.013523,0.002678,0.000431,0.002116
18170000,0.0324,0.013523,0.002678,0.000431,0.002116
18171000,0.0324,0.013523,0.002678,0.000431,0.002351
18172000,0.0324,0.013523,0.002678,0.000431,0.001998
18173000,0.0324,0.013523,0.002678,0.000431,0.001645
18174000,0.0324,0.013523,0.002678,0.000431,0.001998
18175000,0.0324,0.013523,0.002678,0.000431,0.002351
18176000,0.0324,0.013523,0.002678,0.000431,0.001998
18177000,0.0324,0.013523,0.002678,0.000431,0.001880
18178000,0.0324,0.013523,0.002678,0.000431,0.002351
18179000,0.0324,0.013523,0.002678,0.000431,0.001998
18180000,0.0324,0.013523,0.002678,0.000431,0.001998
18181000,0.0324,0.013523,0.002678,0.000431,0.002116
18182000,0.0324,0.013523,0.002678,0.000431,0.002233
18183000,0.0324,0.013523,0.002678,0.000431,0.001880
18184000,0.0324,0.013523,0.002678,0.000431,0.002116
18185000,0.0324,0.013523,0.002678,0.000431,0.002116
18186000,0.0324,0.013523,0.002678,0.000431,0.002116
18187000,0.0324,0.013523,0.002678,0.000431,0.002233
18188000,0.0324,0.013523,0.002678,0.000431,0.001880
18189000,0.0324,0.013523,0.002678,0.000431,0.002116
18190000,0.0324,0.013523,0.002678,0.000431,0.002468
18191000,0.0324,0.013523,0.002678,0.000431,0.002116
18192000,0.0324,0.013523,0.002678,0.000431,0.002233
18193000,0.0324,0.013523,0.002678,0.000431,0.001998
18194000,0.0324,0.013523,0.002678,0.000431,0.002116
18195000,0.0324,0.013523,0.002678,0.000431,0.001645
18196000,0.0324,0.013523,0.002678,0.000431,0.002351
18197000,0.0324,0.013523,0.002678,0.000431,0.001763
18198000,0.0324,0.013523,0.002678,0.000431,0.002233
18199000,0.0324,0.013523,0.002678,0.000431,0.001998
18200000,0.0324,0.013523,0.002678,0.000431,0.002233
18201000,0.0324,0.013523,0.002678,0.000431,0.001998
18202000,0.0324,0.013523,0.002678,0.000431,0.001880
18203000,0.0324,0.013523,0.002678,0.000431,0.002233
18204000,0.0324,0.013523,0.002678,0.000431,0.002233
18205000,0.0324,0.013523,0.002678,0.000431,0.002351
18206000,0.0324,0.013523,0.002678,0.000431,0.001645
18207000,0.0324,0.013523,0.002678,0.000431,0.002351
18208000,0.0324,0.013523,0.002678,0.000431,0.001998
18209000,0.0324,0.013523,0.002678,0.000431,0.002351
18210000,0.0324,0.013523,0.002678,0.000431,0.001763
18211000,0.0324,0.013523,0.002678,0.000431,0.002233
18212000,0.0324,0.013523,0.002678,0.000431,0.001763
18213000,0.0324,0.013523,0.002678,0.000431,0.001763
18214000,0.0324,0.013523,0.002678,0.000431,0.001998
18215000,0.0324,0.013523,0.002678,0.000431,0.002116
18216000,0.0324,0.013523,0.002678,0.000431,0.002116
18217000,0.0324,0.013523,0.002678,0.000431,0.002233
18218000,0.0324,0.013523,0.002678,0.000431,0.001880
18219000,0.0324,0.013523,0.002678,0.000431,0.002116
18220000,0.0324,0.013523,0.002678,0.000431,0.001880
18221000,0.0324,0.013523,0.002678,0.000431,0.001880
18222000,0.0324,0.013523,0.002678,0.000431,0.001998
18223000,0.0324,0.013523,0.002678,0.000431,0.002233
18224000,0.0324,0.013523,0.002678,0.000431,0.001880
18225000,0.0324,0.013523,0.002678,0.000431,0.002233
18226000,0.0324,0.013523,0.002678,0.000431,0.001998
18227000,0.0324,0.013523,0.002678,0.000431,0.001880
18228000,0.0324,0.013523,0.002678,0.000431,0.001998
18229000,0.0324,0.013523,0.002678,0.000431,0.001998
18230000,0.0324,0.013523,0.002678,0.000431,0.002468
18231000,0.0324,0.013523,0.002678,0.000431,0.001763
18232000,0.0324,0.013523,0.002678,0.000431,0.001880
18233000,0.0324,0.013523,0.002678,0.000431,0.001998
18234000,0.0324,0.013523,0.002678,0.000431,0.002351
18235000,0.0324,0.013523,0.002678,0.000431,0.001763
18236000,0.0324,0.013523,0.002678,0.000431,0.002351
18237000,0.0324,0.013523,0.002678,0.000431,0.001880
18238000,0.0324,0.013523,0.002678,0.000431,0.001880
18239000,0.0324,0.013523,0.002678,0.000431,0.001998
18240000,0.0324,0.013523,0.002678,0.000431,0.002351
18241000,0.0324,0.013523,0.002678,0.000431,0.001998
18242000,0.0324,0.013523,0.002678,0.000431,0.002351
18243000,0.0324,0.013523,0.002678,0.000431,0.001763
18244000,0.0324,0.013523,0.002678,0.000431,0.001998
18245000,0.0324,0.013523,0.002678,0.000431,0.001998
18246000,0.0324,0.013523,0.002678,0.000431,0.002116
18247000,0.0324,0.013523,0.002678,0.000431,0.002116
18248000,0.0324,0.013523,0.002678,0.000431,0.002116
18249000,0.0324,0.013523,0.002678,0.000431,0.002116
18250000,0.0324,0.013523,0.002678,0.000431,0.002233
18251000,0.0324,0.013523,0.002678,0.000431,0.002116
18252000,0.0324,0.013523,0.002678,0.000431,0.001998
18253000,0.0324,0.013523,0.002678,0.000431,0.001880
18254000,0.0324,0.013523,0.002678,0.000431,0.002116
18255000,0.0324,0.013523,0.002678,0.000431,0.002116
18256000,0.0324,0.013523,0.002678,0.000431,0.001998
18257000,0.0324,0.013523,0.002678,0.000431,0.001998
18258000,0.0324,0.013523,0.002678,0.000431,0.002116
18259000,0.0324,0.013523,0.002678,0.000431,0.001998
18260000,0.0324,0.013523,0.002678,0.000431,0.002233
18261000,0.0324,0.013523,0.002678,0.000431,0.001880
18262000,0.0324,0.013523,0.002678,0.000431,0.002351
18263000,0.0324,0.013523,0.002678,0.000431,0.001998
18264000,0.0324,0.013523,0.002678,0.000431,0.002351
18265000,0.0324,0.013523,0.002678,0.000431,0.002116
18266000,0.0324,0.013523,0.002678,0.000431,0.001880
18267000,0.0324,0.013523,0.002678,0.000431,0.001880
18268000,0.0324,0.013523,0.002678,0.000431,0.001998
18269000,0.0324,0.013523,0.002678,0.000431,0.002351
18270000,0.0324,0.013523,0.002678,0.000431,0.002116
18271000,0.0324,0.013523,0.002678,0.000431,0.002233
18272000,0.0324,0.013523,0.002678,0.000431,0.001763
18273000,0.0324,0.013523,0.002678,0.000431,0.001998
18274000,0.0324,0.013523,0.002678,0.000431,0.002233
18275000,0.0324,0.013523,0.002678,0.000431,0.002116
18276000,0.0324,0.013523,0.002678,0.000431,0.001763
18277000,0.0324,0.013523,0.002678,0.000431,0.002116
18278000,0.0324,0.013523,0.002678,0.000431,0.001763
18279000,0.0324,0.013523,0.002678,0.000431,0.002116
18280000,0.0324,0.013523,0.002678,0.000431,0.002116
18281000,0.0324,0.013523,0.002678,0.000431,0.001998
18282000,0.0324,0.013523,0.002678,0.000431,0.001998
18283000,0.0324,0.013523,0.002678,0.000431,0.001880
18284000,0.0324,0.013523,0.002678,0.000431,0.001998
18285000,0.0324,0.013523,0.002678,0.000431,0.002116
18286000,0.0324,0.013523,0.002678,0.000431,0.002116
18287000,0.0324,0.013523,0.002678,0.000431,0.002116
18288000,0.0324,0.013523,0.002678,0.000431,0.002468
18289000,0.0324,0.013523,0.002678,0.000431,0.001880
18290000,0.0324,0.013523,0.002678,0.000431,0.001998
18291000,0.0324,0.013523,0.002678,0.000431,0.001998
18292000,0.0324,0.013523,0.002678,0.000431,0.001880
18293000,0.0324,0.013523,0.002678,0.000431,0.001998
18294000,0.0324,0.013523,0.002678,0.000431,0.001998
18295000,0.0324,0.013523,0.002678,0.000431,0.002116
18296000,0.0324,0.013523,0.002678,0.000431,0.001763
18297000,0.0324,0.013523,0.002678,0.000431,0.001880
18298000,0.0324,0.013523,0.002678,0.000431,0.001998
18299000,0.0324,0.013523,0.002678,0.000431,0.001998
18300000,0.0324,0.013523,0.002678,0.000431,0.001645
18301000,0.0324,0.013523,0.002678,0.000431,0.001998
18302000,0.0324,0.013523,0.002678,0.000431,0.002116
18303000,0.0324,0.013523,0.002678,0.000431,0.002116
18304000,0.0324,0.013523,0.002678,0.000431,0.001763
18305000,0.0324,0.013523,0.002678,0.000431,0.001880
18306000,0.0324,0.013523,0.002678,0.000431,0.001880
18307000,0.0324,0.013523,0.002678,0.000431,0.002233
18308000,0.0324,0.013523,0.002678,0.000431,0.001763
18309000,0.0324,0.013523,0.002678,0.000431,0.001998
18310000,0.0324,0.013523,0.002678,0.000431,0.002116
18311000,0.0324,0.013523,0.002678,0.000431,0.001998
18312000,0.0324,0.013523,0.002678,0.000431,0.002116
18313000,0.0324,0.013523,0.002678,0.000431,0.002116
18314000,0.0324,0.013523,0.002678,0.000431,0.001998
18315000,0.0324,0.013523,0.002678,0.000431,0.002233
18316000,0.0324,0.013523,0.002678,0.000431,0.002116
18317000,0.0324,0.013523,0.002678,0.000431,0.001998
18318000,0.0324,0.013523,0.002678,0.000431,0.001998
18319000,0.0324,0.013523,0.002678,0.000431,0.002116
18320000,0.0324,0.013523,0.002678,0.000431,0.001998
18321000,0.0324,0.013523,0.002678,0.000431,0.001998
18322000,0.0324,0.013523,0.002678,0.000431,0.002468
18323000,0.0324,0.013523,0.002678,0.000431,0.001880
18324000,0.0324,0.013523,0.002678,0.000431,0.002351
18325000,0.0324,0.013523,0.002678,0.000431,0.001763
18326000,0.0324,0.013523,0.002678,0.000431,0.001998
18327000,0.0324,0.013523,0.002678,0.000431,0.001998
18328000,0.0324,0.013523,0.002678,0.000431,0.002351
18329000,0.0324,0.013523,0.002678,0.000431,0.001528
18330000,0.0324,0.013523,0.002678,0.000431,0.002233
18331000,0.0324,0.013523,0.002678,0.000431,0.001998
18332000,0.0324,0.013523,0.002678,0.000431,0.002586
18333000,0.0324,0.013523,0.002678,0.000431,0.001998
18334000,0.0324,0.013523,0.002678,0.000431,0.001880
18335000,0.0324,0.013523,0.002678,0.000431,0.002116
18336000,0.0324,0.013523,0.002678,0.000431,0.002116
18337000,0.0324,0.013523,0.002678,0.000431,0.001998
18338000,0.0324,0.013523,0.002678,0.000431,0.002233
18339000,0.0324,0.013523,0.002678,0.000431,0.002116
18340000,0.0324,0.013523,0.002678,0.000431,0.002116
18341000,0.0324,0.013523,0.002678,0.000431,0.002351
18342000,0.0324,0.013523,0.002678,0.000431,0.001880
18343000,0.0324,0.013523,0.002678,0.000431,0.001998
18344000,0.0324,0.013523,0.002678,0.000431,0.001763
18345000,0.0324,0.013523,0.002678,0.000431,0.002116
18346000,0.0324,0.013523,0.002678,0.000431,0.002233
18347000,0.0324,0.013523,0.002678,0.000431,0.001880
18348000,0.0324,0.013523,0.002678,0.000431,0.001998
18349000,0.0324,0.013523,0.002678,0.000431,0.002116
18350000,0.0324,0.013523,0.002678,0.000431,0.001998
18351000,0.0324,0.013523,0.002678,0.000431,0.001998
18352000,0.0324,0.013523,0.002678,0.000431,0.002351
18353000,0.0324,0.013523,0.002678,0.000431,0.001763
18354000,0.0324,0.013523,0.002678,0.000431,0.002116
18355000,0.0324,0.013523,0.002678,0.000431,0.001763
18356000,0.0324,0.013523,0.002678,0.000431,0.001998
18357000,0.0324,0.013523,0.002678,0.000431,0.001880
18358000,0.0324,0.013523,0.002678,0.000431,0.002233
18359000,0.0324,0.013523,0.002678,0.000431,0.001880
18360000,0.0324,0.013523,0.002678,0.000431,0.001528
18361000,0.0324,0.013523,0.002678,0.000431,0.001645
18362000,0.0324,0.013523,0.002678,0.000431,0.001763
18363000,0.0324,0.013523,0.002678,0.000431,0.001645
18364000,0.0324,0.013523,0.002678,0.000431,0.002233
18365000,0.0324,0.013523,0.002678,0.000431,0.001998
18366000,0.0324,0.013523,0.002678,0.000431,0.002116
18367000,0.0324,0.013523,0.002678,0.000431,0.002116
18368000,0.0324,0.013523,0.002678,0.000431,0.002586
18369000,0.0324,0.013523,0.002678,0.000431,0.001880
18370000,0.0324,0.013523,0.002678,0.000431,0.001998
18371000,0.0324,0.013523,0.002678,0.000431,0.001763
18372000,0.0324,0.013523,0.002678,0.000431,0.001998
18373000,0.0324,0.013523,0.002678,0.000431,0.002233
18374000,0.0324,0.013523,0.002678,0.000431,0.001645
18375000,0.0324,0.013523,0.002678,0.000431,0.001763
18376000,0.0324,0.013523,0.002678,0.000431,0.001998
18377000,0.0324,0.013523,0.002678,0.000431,0.002233
18378000,0.0324,0.013523,0.002678,0.000431,0.001998
18379000,0.0324,0.013523,0.002678,0.000431,0.002233
18380000,0.0324,0.013523,0.002678,0.000431,0.002351
18381000,0.0324,0.013523,0.002678,0.000431,0.002468
