Cycle,Area(mm^2),PeakDynamic(W),SubthresholdLeakage(W),GateLeakage(W),RunTimeDynamic(W)
18000000,0.0324,0.013523,0.002678,0.000431,0.004584
18001000,0.0324,0.013523,0.002678,0.000431,0.004819
18002000,0.0324,0.013523,0.002678,0.000431,0.004349
18003000,0.0324,0.013523,0.002678,0.000431,0.003996
18004000,0.0324,0.013523,0.002678,0.000431,0.004584
18005000,0.0324,0.013523,0.002678,0.000431,0.005171
18006000,0.0324,0.013523,0.002678,0.000431,0.004819
18007000,0.0324,0.013523,0.002678,0.000431,0.004466
18008000,0.0324,0.013523,0.002678,0.000431,0.005289
18009000,0.0324,0.013523,0.002678,0.000431,0.004231
18010000,0.0324,0.013523,0.002678,0.000431,0.004231
18011000,0.0324,0.013523,0.002678,0.000431,0.004701
18012000,0.0324,0.013523,0.002678,0.000431,0.004819
18013000,0.0324,0.013523,0.002678,0.000431,0.004231
18014000,0.0324,0.013523,0.002678,0.000431,0.004936
18015000,0.0324,0.013523,0.002678,0.000431,0.004349
18016000,0.0324,0.013523,0.002678,0.000431,0.004701
18017000,0.0324,0.013523,0.002678,0.000431,0.004701
18018000,0.0324,0.013523,0.002678,0.000431,0.004701
18019000,0.0324,0.013523,0.002678,0.000431,0.004819
18020000,0.0324,0.013523,0.002678,0.000431,0.004349
18021000,0.0324,0.013523,0.002678,0.000431,0.003996
18022000,0.0324,0.013523,0.002678,0.000431,0.004819
18023000,0.0324,0.013523,0.002678,0.000431,0.004113
18024000,0.0324,0.013523,0.002678,0.000431,0.004466
18025000,0.0324,0.013523,0.002678,0.000431,0.004231
18026000,0.0324,0.013523,0.002678,0.000431,0.004231
18027000,0.0324,0.013523,0.002678,0.000431,0.004584
18028000,0.0324,0.013523,0.002678,0.000431,0.004701
18029000,0.0324,0.013523,0.002678,0.000431,0.005054
18030000,0.0324,0.013523,0.002678,0.000431,0.004349
18031000,0.0324,0.013523,0.002678,0.000431,0.004466
18032000,0.0324,0.013523,0.002678,0.000431,0.004231
18033000,0.0324,0.013523,0.002678,0.000431,0.004584
18034000,0.0324,0.013523,0.002678,0.000431,0.004701
18035000,0.0324,0.013523,0.002678,0.000431,0.004231
18036000,0.0324,0.013523,0.002678,0.000431,0.004936
18037000,0.0324,0.013523,0.002678,0.000431,0.004936
18038000,0.0324,0.013523,0.002678,0.000431,0.004231
18039000,0.0324,0.013523,0.002678,0.000431,0.004584
18040000,0.0324,0.013523,0.002678,0.000431,0.004584
18041000,0.0324,0.013523,0.002678,0.000431,0.004584
18042000,0.0324,0.013523,0.002678,0.000431,0.004701
18043000,0.0324,0.013523,0.002678,0.000431,0.005054
18044000,0.0324,0.013523,0.002678,0.000431,0.004231
18045000,0.0324,0.013523,0.002678,0.000431,0.004819
18046000,0.0324,0.013523,0.002678,0.000431,0.004231
18047000,0.0324,0.013523,0.002678,0.000431,0.004584
18048000,0.0324,0.013523,0.002678,0.000431,0.004701
18049000,0.0324,0.013523,0.002678,0.000431,0.004701
18050000,0.0324,0.013523,0.002678,0.000431,0.004584
18051000,0.0324,0.013523,0.002678,0.000431,0.004349
18052000,0.0324,0.013523,0.002678,0.000431,0.005289
18053000,0.0324,0.013523,0.002678,0.000431,0.004231
18054000,0.0324,0.013523,0.002678,0.000431,0.004584
18055000,0.0324,0.013523,0.002678,0.000431,0.004113
18056000,0.0324,0.013523,0.002678,0.000431,0.005054
18057000,0.0324,0.013523,0.002678,0.000431,0.004819
18058000,0.0324,0.013523,0.002678,0.000431,0.004936
18059000,0.0324,0.013523,0.002678,0.000431,0.004466
18060000,0.0324,0.013523,0.002678,0.000431,0.004701
18061000,0.0324,0.013523,0.002678,0.000431,0.004701
18062000,0.0324,0.013523,0.002678,0.000431,0.004701
18063000,0.0324,0.013523,0.002678,0.000431,0.005289
18064000,0.0324,0.013523,0.002678,0.000431,0.003878
18065000,0.0324,0.013523,0.002678,0.000431,0.004584
18066000,0.0324,0.013523,0.002678,0.000431,0.004701
18067000,0.0324,0.013523,0.002678,0.000431,0.004701
18068000,0.0324,0.013523,0.002678,0.000431,0.003878
18069000,0.0324,0.013523,0.002678,0.000431,0.004936
18070000,0.0324,0.013523,0.002678,0.000431,0.004701
18071000,0.0324,0.013523,0.002678,0.000431,0.004466
18072000,0.0324,0.013523,0.002678,0.000431,0.004819
18073000,0.0324,0.013523,0.002678,0.000431,0.004231
18074000,0.0324,0.013523,0.002678,0.000431,0.004113
18075000,0.0324,0.013523,0.002678,0.000431,0.004349
18076000,0.0324,0.013523,0.002678,0.000431,0.004349
18077000,0.0324,0.013523,0.002678,0.000431,0.004349
18078000,0.0324,0.013523,0.002678,0.000431,0.004819
18079000,0.0324,0.013523,0.002678,0.000431,0.003878
18080000,0.0324,0.013523,0.002678,0.000431,0.004701
18081000,0.0324,0.013523,0.002678,0.000431,0.003996
18082000,0.0324,0.013523,0.002678,0.000431,0.005406
18083000,0.0324,0.013523,0.002678,0.000431,0.004936
18084000,0.0324,0.013523,0.002678,0.000431,0.003878
18085000,0.0324,0.013523,0.002678,0.000431,0.004819
18086000,0.0324,0.013523,0.002678,0.000431,0.004466
18087000,0.0324,0.013523,0.002678,0.000431,0.004113
18088000,0.0324,0.013523,0.002678,0.000431,0.004819
18089000,0.0324,0.013523,0.002678,0.000431,0.004466
18090000,0.0324,0.013523,0.002678,0.000431,0.003878
18091000,0.0324,0.013523,0.002678,0.000431,0.005289
18092000,0.0324,0.013523,0.002678,0.000431,0.005054
18093000,0.0324,0.013523,0.002678,0.000431,0.004231
18094000,0.0324,0.013523,0.002678,0.000431,0.004819
18095000,0.0324,0.013523,0.002678,0.000431,0.004349
18096000,0.0324,0.013523,0.002678,0.000431,0.004701
18097000,0.0324,0.013523,0.002678,0.000431,0.004349
18098000,0.0324,0.013523,0.002678,0.000431,0.004819
18099000,0.0324,0.013523,0.002678,0.000431,0.005054
18100000,0.0324,0.013523,0.002678,0.000431,0.004936
18101000,0.0324,0.013523,0.002678,0.000431,0.004349
18102000,0.0324,0.013523,0.002678,0.000431,0.004466
18103000,0.0324,0.013523,0.002678,0.000431,0.004584
18104000,0.0324,0.013523,0.002678,0.000431,0.004584
18105000,0.0324,0.013523,0.002678,0.000431,0.004349
18106000,0.0324,0.013523,0.002678,0.000431,0.004231
18107000,0.0324,0.013523,0.002678,0.000431,0.004701
18108000,0.0324,0.013523,0.002678,0.000431,0.004584
18109000,0.0324,0.013523,0.002678,0.000431,0.004936
18110000,0.0324,0.013523,0.002678,0.000431,0.004584
18111000,0.0324,0.013523,0.002678,0.000431,0.004584
18112000,0.0324,0.013523,0.002678,0.000431,0.004819
18113000,0.0324,0.013523,0.002678,0.000431,0.004231
18114000,0.0324,0.013523,0.002678,0.000431,0.004819
18115000,0.0324,0.013523,0.002678,0.000431,0.004466
18116000,0.0324,0.013523,0.002678,0.000431,0.004701
18117000,0.0324,0.013523,0.002678,0.000431,0.004231
18118000,0.0324,0.013523,0.002678,0.000431,0.004701
18119000,0.0324,0.013523,0.002678,0.000431,0.004349
18120000,0.0324,0.013523,0.002678,0.000431,0.004819
18121000,0.0324,0.013523,0.002678,0.000431,0.004584
18122000,0.0324,0.013523,0.002678,0.000431,0.004231
18123000,0.0324,0.013523,0.002678,0.000431,0.004584
18124000,0.0324,0.013523,0.002678,0.000431,0.004584
18125000,0.0324,0.013523,0.002678,0.000431,0.004701
18126000,0.0324,0.013523,0.002678,0.000431,0.004584
18127000,0.0324,0.013523,0.002678,0.000431,0.004584
18128000,0.0324,0.013523,0.002678,0.000431,0.005054
18129000,0.0324,0.013523,0.002678,0.000431,0.004819
18130000,0.0324,0.013523,0.002678,0.000431,0.004584
18131000,0.0324,0.013523,0.002678,0.000431,0.004349
18132000,0.0324,0.013523,0.002678,0.000431,0.004584
18133000,0.0324,0.013523,0.002678,0.000431,0.004701
18134000,0.0324,0.013523,0.002678,0.000431,0.004701
18135000,0.0324,0.013523,0.002678,0.000431,0.004113
18136000,0.0324,0.013523,0.002678,0.000431,0.003996
18137000,0.0324,0.013523,0.002678,0.000431,0.004466
18138000,0.0324,0.013523,0.002678,0.000431,0.004466
18139000,0.0324,0.013523,0.002678,0.000431,0.004819
18140000,0.0324,0.013523,0.002678,0.000431,0.004349
18141000,0.0324,0.013523,0.002678,0.000431,0.004349
18142000,0.0324,0.013523,0.002678,0.000431,0.004819
18143000,0.0324,0.013523,0.002678,0.000431,0.004466
18144000,0.0324,0.013523,0.002678,0.000431,0.004701
18145000,0.0324,0.013523,0.002678,0.000431,0.005171
18146000,0.0324,0.013523,0.002678,0.000431,0.005289
18147000,0.0324,0.013523,0.002678,0.000431,0.004466
18148000,0.0324,0.013523,0.002678,0.000431,0.004584
18149000,0.0324,0.013523,0.002678,0.000431,0.004584
18150000,0.0324,0.013523,0.002678,0.000431,0.004701
18151000,0.0324,0.013523,0.002678,0.000431,0.004349
18152000,0.0324,0.013523,0.002678,0.000431,0.004936
18153000,0.0324,0.013523,0.002678,0.000431,0.004819
18154000,0.0324,0.013523,0.002678,0.000431,0.003996
18155000,0.0324,0.013523,0.002678,0.000431,0.004819
18156000,0.0324,0.013523,0.002678,0.000431,0.004701
18157000,0.0324,0.013523,0.002678,0.000431,0.004231
18158000,0.0324,0.013523,0.002678,0.000431,0.004113
18159000,0.0324,0.013523,0.002678,0.000431,0.004113
18160000,0.0324,0.013523,0.002678,0.000431,0.004936
18161000,0.0324,0.013523,0.002678,0.000431,0.004584
18162000,0.0324,0.013523,0.002678,0.000431,0.004231
18163000,0.0324,0.013523,0.002678,0.000431,0.003878
18164000,0.0324,0.013523,0.002678,0.000431,0.004584
18165000,0.0324,0.013523,0.002678,0.000431,0.004231
18166000,0.0324,0.013523,0.002678,0.000431,0.004936
18167000,0.0324,0.013523,0.002678,0.000431,0.004113
18168000,0.0324,0.013523,0.002678,0.000431,0.003996
18169000,0.0324,0.013523,0.002678,0.000431,0.004584
18170000,0.0324,0.013523,0.002678,0.000431,0.004819
18171000,0.0324,0.013523,0.002678,0.000431,0.004936
18172000,0.0324,0.013523,0.002678,0.000431,0.004584
18173000,0.0324,0.013523,0.002678,0.000431,0.004819
18174000,0.0324,0.013523,0.002678,0.000431,0.004819
18175000,0.0324,0.013523,0.002678,0.000431,0.004349
18176000,0.0324,0.013523,0.002678,0.000431,0.004819
18177000,0.0324,0.013523,0.002678,0.000431,0.004231
18178000,0.0324,0.013523,0.002678,0.000431,0.004466
18179000,0.0324,0.013523,0.002678,0.000431,0.004584
18180000,0.0324,0.013523,0.002678,0.000431,0.004584
18181000,0.0324,0.013523,0.002678,0.000431,0.005171
18182000,0.0324,0.013523,0.002678,0.000431,0.004466
18183000,0.0324,0.013523,0.002678,0.000431,0.004349
18184000,0.0324,0.013523,0.002678,0.000431,0.004584
18185000,0.0324,0.013523,0.002678,0.000431,0.004113
18186000,0.0324,0.013523,0.002678,0.000431,0.004819
18187000,0.0324,0.013523,0.002678,0.000431,0.004231
18188000,0.0324,0.013523,0.002678,0.000431,0.004819
18189000,0.0324,0.013523,0.002678,0.000431,0.005054
18190000,0.0324,0.013523,0.002678,0.000431,0.004466
18191000,0.0324,0.013523,0.002678,0.000431,0.005054
18192000,0.0324,0.013523,0.002678,0.000431,0.003761
18193000,0.0324,0.013523,0.002678,0.000431,0.004466
18194000,0.0324,0.013523,0.002678,0.000431,0.004584
18195000,0.0324,0.013523,0.002678,0.000431,0.004349
18196000,0.0324,0.013523,0.002678,0.000431,0.004349
18197000,0.0324,0.013523,0.002678,0.000431,0.004231
18198000,0.0324,0.013523,0.002678,0.000431,0.004819
18199000,0.0324,0.013523,0.002678,0.000431,0.004819
18200000,0.0324,0.013523,0.002678,0.000431,0.004936
18201000,0.0324,0.013523,0.002678,0.000431,0.004701
18202000,0.0324,0.013523,0.002678,0.000431,0.004349
18203000,0.0324,0.013523,0.002678,0.000431,0.004349
18204000,0.0324,0.013523,0.002678,0.000431,0.004231
18205000,0.0324,0.013523,0.002678,0.000431,0.004466
18206000,0.0324,0.013523,0.002678,0.000431,0.004349
18207000,0.0324,0.013523,0.002678,0.000431,0.004819
18208000,0.0324,0.013523,0.002678,0.000431,0.004819
18209000,0.0324,0.013523,0.002678,0.000431,0.004819
18210000,0.0324,0.013523,0.002678,0.000431,0.004466
18211000,0.0324,0.013523,0.002678,0.000431,0.005054
18212000,0.0324,0.013523,0.002678,0.000431,0.004466
18213000,0.0324,0.013523,0.002678,0.000431,0.004584
18214000,0.0324,0.013523,0.002678,0.000431,0.004701
18215000,0.0324,0.013523,0.002678,0.000431,0.004113
18216000,0.0324,0.013523,0.002678,0.000431,0.004584
18217000,0.0324,0.013523,0.002678,0.000431,0.004936
18218000,0.0324,0.013523,0.002678,0.000431,0.004584
18219000,0.0324,0.013523,0.002678,0.000431,0.004113
18220000,0.0324,0.013523,0.002678,0.000431,0.004349
18221000,0.0324,0.013523,0.002678,0.000431,0.004231
18222000,0.0324,0.013523,0.002678,0.000431,0.004466
18223000,0.0324,0.013523,0.002678,0.000431,0.004349
18224000,0.0324,0.013523,0.002678,0.000431,0.004701
18225000,0.0324,0.013523,0.002678,0.000431,0.004466
18226000,0.0324,0.013523,0.002678,0.000431,0.004584
18227000,0.0324,0.013523,0.002678,0.000431,0.004584
18228000,0.0324,0.013523,0.002678,0.000431,0.004349
18229000,0.0324,0.013523,0.002678,0.000431,0.004584
18230000,0.0324,0.013523,0.002678,0.000431,0.004349
18231000,0.0324,0.013523,0.002678,0.000431,0.003996
18232000,0.0324,0.013523,0.002678,0.000431,0.004701
18233000,0.0324,0.013523,0.002678,0.000431,0.003643
18234000,0.0324,0.013523,0.002678,0.000431,0.004701
18235000,0.0324,0.013523,0.002678,0.000431,0.005054
18236000,0.0324,0.013523,0.002678,0.000431,0.004701
18237000,0.0324,0.013523,0.002678,0.000431,0.004701
18238000,0.0324,0.013523,0.002678,0.000431,0.004466
18239000,0.0324,0.013523,0.002678,0.000431,0.004584
18240000,0.0324,0.013523,0.002678,0.000431,0.004819
18241000,0.0324,0.013523,0.002678,0.000431,0.004113
18242000,0.0324,0.013523,0.002678,0.000431,0.004349
18243000,0.0324,0.013523,0.002678,0.000431,0.004466
18244000,0.0324,0.013523,0.002678,0.000431,0.005641
18245000,0.0324,0.013523,0.002678,0.000431,0.004819
18246000,0.0324,0.013523,0.002678,0.000431,0.004113
18247000,0.0324,0.013523,0.002678,0.000431,0.004701
18248000,0.0324,0.013523,0.002678,0.000431,0.004231
18249000,0.0324,0.013523,0.002678,0.000431,0.004936
18250000,0.0324,0.013523,0.002678,0.000431,0.003996
18251000,0.0324,0.013523,0.002678,0.000431,0.004466
18252000,0.0324,0.013523,0.002678,0.000431,0.004819
18253000,0.0324,0.013523,0.002678,0.000431,0.004936
18254000,0.0324,0.013523,0.002678,0.000431,0.004936
18255000,0.0324,0.013523,0.002678,0.000431,0.004466
18256000,0.0324,0.013523,0.002678,0.000431,0.004701
18257000,0.0324,0.013523,0.002678,0.000431,0.004113
18258000,0.0324,0.013523,0.002678,0.000431,0.004466
18259000,0.0324,0.013523,0.002678,0.000431,0.004584
18260000,0.0324,0.013523,0.002678,0.000431,0.004819
18261000,0.0324,0.013523,0.002678,0.000431,0.004584
18262000,0.0324,0.013523,0.002678,0.000431,0.004231
18263000,0.0324,0.013523,0.002678,0.000431,0.004584
18264000,0.0324,0.013523,0.002678,0.000431,0.004231
18265000,0.0324,0.013523,0.002678,0.000431,0.004584
18266000,0.0324,0.013523,0.002678,0.000431,0.004819
18267000,0.0324,0.013523,0.002678,0.000431,0.004231
18268000,0.0324,0.013523,0.002678,0.000431,0.004936
18269000,0.0324,0.013523,0.002678,0.000431,0.004584
18270000,0.0324,0.013523,0.002678,0.000431,0.004701
18271000,0.0324,0.013523,0.002678,0.000431,0.004701
18272000,0.0324,0.013523,0.002678,0.000431,0.004819
18273000,0.0324,0.013523,0.002678,0.000431,0.004584
18274000,0.0324,0.013523,0.002678,0.000431,0.003996
18275000,0.0324,0.013523,0.002678,0.000431,0.004466
18276000,0.0324,0.013523,0.002678,0.000431,0.004701
18277000,0.0324,0.013523,0.002678,0.000431,0.004231
18278000,0.0324,0.013523,0.002678,0.000431,0.004819
18279000,0.0324,0.013523,0.002678,0.000431,0.004584
18280000,0.0324,0.013523,0.002678,0.000431,0.004349
18281000,0.0324,0.013523,0.002678,0.000431,0.004584
18282000,0.0324,0.013523,0.002678,0.000431,0.004936
18283000,0.0324,0.013523,0.002678,0.000431,0.004936
18284000,0.0324,0.013523,0.002678,0.000431,0.004466
18285000,0.0324,0.013523,0.002678,0.000431,0.004349
18286000,0.0324,0.013523,0.002678,0.000431,0.004584
18287000,0.0324,0.013523,0.002678,0.000431,0.004466
18288000,0.0324,0.013523,0.002678,0.000431,0.004819
18289000,0.0324,0.013523,0.002678,0.000431,0.004466
18290000,0.0324,0.013523,0.002678,0.000431,0.004936
18291000,0.0324,0.013523,0.002678,0.000431,0.004584
18292000,0.0324,0.013523,0.002678,0.000431,0.004584
18293000,0.0324,0.013523,0.002678,0.000431,0.004819
18294000,0.0324,0.013523,0.002678,0.000431,0.004466
18295000,0.0324,0.013523,0.002678,0.000431,0.004466
18296000,0.0324,0.013523,0.002678,0.000431,0.004231
18297000,0.0324,0.013523,0.002678,0.000431,0.004701
18298000,0.0324,0.013523,0.002678,0.000431,0.004819
18299000,0.0324,0.013523,0.002678,0.000431,0.004936
18300000,0.0324,0.013523,0.002678,0.000431,0.003643
18301000,0.0324,0.013523,0.002678,0.000431,0.004349
18302000,0.0324,0.013523,0.002678,0.000431,0.004819
18303000,0.0324,0.013523,0.002678,0.000431,0.004819
18304000,0.0324,0.013523,0.002678,0.000431,0.004113
18305000,0.0324,0.013523,0.002678,0.000431,0.004701
18306000,0.0324,0.013523,0.002678,0.000431,0.005171
18307000,0.0324,0.013523,0.002678,0.000431,0.004936
18308000,0.0324,0.013523,0.002678,0.000431,0.004466
18309000,0.0324,0.013523,0.002678,0.000431,0.004231
18310000,0.0324,0.013523,0.002678,0.000431,0.004819
18311000,0.0324,0.013523,0.002678,0.000431,0.004466
18312000,0.0324,0.013523,0.002678,0.000431,0.004584
18313000,0.0324,0.013523,0.002678,0.000431,0.004349
18314000,0.0324,0.013523,0.002678,0.000431,0.004466
18315000,0.0324,0.013523,0.002678,0.000431,0.005054
18316000,0.0324,0.013523,0.002678,0.000431,0.004349
18317000,0.0324,0.013523,0.002678,0.000431,0.003996
18318000,0.0324,0.013523,0.002678,0.000431,0.004466
18319000,0.0324,0.013523,0.002678,0.000431,0.004701
18320000,0.0324,0.013523,0.002678,0.000431,0.004466
18321000,0.0324,0.013523,0.002678,0.000431,0.004584
18322000,0.0324,0.013523,0.002678,0.000431,0.004466
18323000,0.0324,0.013523,0.002678,0.000431,0.005054
18324000,0.0324,0.013523,0.002678,0.000431,0.003996
18325000,0.0324,0.013523,0.002678,0.000431,0.004113
18326000,0.0324,0.013523,0.002678,0.000431,0.004701
18327000,0.0324,0.013523,0.002678,0.000431,0.004936
18328000,0.0324,0.013523,0.002678,0.000431,0.004701
18329000,0.0324,0.013523,0.002678,0.000431,0.004113
18330000,0.0324,0.013523,0.002678,0.000431,0.004584
18331000,0.0324,0.013523,0.002678,0.000431,0.004584
18332000,0.0324,0.013523,0.002678,0.000431,0.004349
18333000,0.0324,0.013523,0.002678,0.000431,0.004466
18334000,0.0324,0.013523,0.002678,0.000431,0.004231
18335000,0.0324,0.013523,0.002678,0.000431,0.004936
18336000,0.0324,0.013523,0.002678,0.000431,0.004701
18337000,0.0324,0.013523,0.002678,0.000431,0.004584
18338000,0.0324,0.013523,0.002678,0.000431,0.004936
18339000,0.0324,0.013523,0.002678,0.000431,0.004584
18340000,0.0324,0.013523,0.002678,0.000431,0.004584
18341000,0.0324,0.013523,0.002678,0.000431,0.004936
18342000,0.0324,0.013523,0.002678,0.000431,0.004466
18343000,0.0324,0.013523,0.002678,0.000431,0.004819
18344000,0.0324,0.013523,0.002678,0.000431,0.004113
18345000,0.0324,0.013523,0.002678,0.000431,0.004349
18346000,0.0324,0.013523,0.002678,0.000431,0.004819
18347000,0.0324,0.013523,0.002678,0.000431,0.004466
18348000,0.0324,0.013523,0.002678,0.000431,0.004819
18349000,0.0324,0.013523,0.002678,0.000431,0.004349
18350000,0.0324,0.013523,0.002678,0.000431,0.004584
18351000,0.0324,0.013523,0.002678,0.000431,0.004466
18352000,0.0324,0.013523,0.002678,0.000431,0.004584
18353000,0.0324,0.013523,0.002678,0.000431,0.004584
18354000,0.0324,0.013523,0.002678,0.000431,0.003996
18355000,0.0324,0.013523,0.002678,0.000431,0.004584
18356000,0.0324,0.013523,0.002678,0.000431,0.004701
18357000,0.0324,0.013523,0.002678,0.000431,0.004701
18358000,0.0324,0.013523,0.002678,0.000431,0.004701
18359000,0.0324,0.013523,0.002678,0.000431,0.004113
18360000,0.0324,0.013523,0.002678,0.000431,0.004701
18361000,0.0324,0.013523,0.002678,0.000431,0.003878
18362000,0.0324,0.013523,0.002678,0.000431,0.004231
18363000,0.0324,0.013523,0.002678,0.000431,0.005289
18364000,0.0324,0.013523,0.002678,0.000431,0.004584
18365000,0.0324,0.013523,0.002678,0.000431,0.003878
18366000,0.0324,0.013523,0.002678,0.000431,0.004466
18367000,0.0324,0.013523,0.002678,0.000431,0.004466
18368000,0.0324,0.013523,0.002678,0.000431,0.003878
18369000,0.0324,0.013523,0.002678,0.000431,0.004349
18370000,0.0324,0.013523,0.002678,0.000431,0.003878
18371000,0.0324,0.013523,0.002678,0.000431,0.004584
18372000,0.0324,0.013523,0.002678,0.000431,0.004349
18373000,0.0324,0.013523,0.002678,0.000431,0.004584
18374000,0.0324,0.013523,0.002678,0.000431,0.004349
18375000,0.0324,0.013523,0.002678,0.000431,0.004113
18376000,0.0324,0.013523,0.002678,0.000431,0.004701
18377000,0.0324,0.013523,0.002678,0.000431,0.004584
18378000,0.0324,0.013523,0.002678,0.000431,0.004113
18379000,0.0324,0.013523,0.002678,0.000431,0.004466
18380000,0.0324,0.013523,0.002678,0.000431,0.004349
18381000,0.0324,0.013523,0.002678,0.000431,0.004466
