Cycle,Area(mm^2),PeakDynamic(W),SubthresholdLeakage(W),GateLeakage(W),RunTimeDynamic(W)
6000000,0.0324,0.013523,0.002678,0.000431,0.002233
6001000,0.0324,0.013523,0.002678,0.000431,0.001998
6002000,0.0324,0.013523,0.002678,0.000431,0.002468
6003000,0.0324,0.013523,0.002678,0.000431,0.002116
6004000,0.0324,0.013523,0.002678,0.000431,0.001880
6005000,0.0324,0.013523,0.002678,0.000431,0.002351
6006000,0.0324,0.013523,0.002678,0.000431,0.002351
6007000,0.0324,0.013523,0.002678,0.000431,0.001880
6008000,0.0324,0.013523,0.002678,0.000431,0.002116
6009000,0.0324,0.013523,0.002678,0.000431,0.002468
6010000,0.0324,0.013523,0.002678,0.000431,0.002116
6011000,0.0324,0.013523,0.002678,0.000431,0.002703
6012000,0.0324,0.013523,0.002678,0.000431,0.002233
6013000,0.0324,0.013523,0.002678,0.000431,0.001763
6014000,0.0324,0.013523,0.002678,0.000431,0.002703
6015000,0.0324,0.013523,0.002678,0.000431,0.001998
6016000,0.0324,0.013523,0.002678,0.000431,0.002351
6017000,0.0324,0.013523,0.002678,0.000431,0.002233
6018000,0.0324,0.013523,0.002678,0.000431,0.002586
6019000,0.0324,0.013523,0.002678,0.000431,0.002468
6020000,0.0324,0.013523,0.002678,0.000431,0.001880
6021000,0.0324,0.013523,0.002678,0.000431,0.002468
6022000,0.0324,0.013523,0.002678,0.000431,0.002116
6023000,0.0324,0.013523,0.002678,0.000431,0.002233
6024000,0.0324,0.013523,0.002678,0.000431,0.002351
6025000,0.0324,0.013523,0.002678,0.000431,0.002116
6026000,0.0324,0.013523,0.002678,0.000431,0.002468
6027000,0.0324,0.013523,0.002678,0.000431,0.002586
6028000,0.0324,0.013523,0.002678,0.000431,0.002116
6029000,0.0324,0.013523,0.002678,0.000431,0.002233
6030000,0.0324,0.013523,0.002678,0.000431,0.002351
6031000,0.0324,0.013523,0.002678,0.000431,0.002116
6032000,0.0324,0.013523,0.002678,0.000431,0.002116
6033000,0.0324,0.013523,0.002678,0.000431,0.002233
6034000,0.0324,0.013523,0.002678,0.000431,0.002586
6035000,0.0324,0.013523,0.002678,0.000431,0.001763
6036000,0.0324,0.013523,0.002678,0.000431,0.002233
6037000,0.0324,0.013523,0.002678,0.000431,0.002116
6038000,0.0324,0.013523,0.002678,0.000431,0.002116
6039000,0.0324,0.013523,0.002678,0.000431,0.002233
6040000,0.0324,0.013523,0.002678,0.000431,0.002233
6041000,0.0324,0.013523,0.002678,0.000431,0.002351
6042000,0.0324,0.013523,0.002678,0.000431,0.002116
6043000,0.0324,0.013523,0.002678,0.000431,0.002468
6044000,0.0324,0.013523,0.002678,0.000431,0.002233
6045000,0.0324,0.013523,0.002678,0.000431,0.002116
6046000,0.0324,0.013523,0.002678,0.000431,0.002351
6047000,0.0324,0.013523,0.002678,0.000431,0.002468
6048000,0.0324,0.013523,0.002678,0.000431,0.001998
6049000,0.0324,0.013523,0.002678,0.000431,0.001645
6050000,0.0324,0.013523,0.002678,0.000431,0.002233
6051000,0.0324,0.013523,0.002678,0.000431,0.002468
6052000,0.0324,0.013523,0.002678,0.000431,0.002233
6053000,0.0324,0.013523,0.002678,0.000431,0.002821
6054000,0.0324,0.013523,0.002678,0.000431,0.002468
6055000,0.0324,0.013523,0.002678,0.000431,0.002821
6056000,0.0324,0.013523,0.002678,0.000431,0.002233
6057000,0.0324,0.013523,0.002678,0.000431,0.002351
6058000,0.0324,0.013523,0.002678,0.000431,0.002233
6059000,0.0324,0.013523,0.002678,0.000431,0.002586
6060000,0.0324,0.013523,0.002678,0.000431,0.002468
6061000,0.0324,0.013523,0.002678,0.000431,0.002703
6062000,0.0324,0.013523,0.002678,0.000431,0.002116
6063000,0.0324,0.013523,0.002678,0.000431,0.002116
6064000,0.0324,0.013523,0.002678,0.000431,0.002468
6065000,0.0324,0.013523,0.002678,0.000431,0.001998
6066000,0.0324,0.013523,0.002678,0.000431,0.001528
6067000,0.0324,0.013523,0.002678,0.000431,0.002116
6068000,0.0324,0.013523,0.002678,0.000431,0.002351
6069000,0.0324,0.013523,0.002678,0.000431,0.002586
6070000,0.0324,0.013523,0.002678,0.000431,0.001998
6071000,0.0324,0.013523,0.002678,0.000431,0.002586
6072000,0.0324,0.013523,0.002678,0.000431,0.001880
6073000,0.0324,0.013523,0.002678,0.000431,0.002116
6074000,0.0324,0.013523,0.002678,0.000431,0.002351
6075000,0.0324,0.013523,0.002678,0.000431,0.002351
6076000,0.0324,0.013523,0.002678,0.000431,0.002116
6077000,0.0324,0.013523,0.002678,0.000431,0.002468
6078000,0.0324,0.013523,0.002678,0.000431,0.002116
6079000,0.0324,0.013523,0.002678,0.000431,0.001880
6080000,0.0324,0.013523,0.002678,0.000431,0.002233
6081000,0.0324,0.013523,0.002678,0.000431,0.002468
6082000,0.0324,0.013523,0.002678,0.000431,0.002351
6083000,0.0324,0.013523,0.002678,0.000431,0.001998
6084000,0.0324,0.013523,0.002678,0.000431,0.002351
6085000,0.0324,0.013523,0.002678,0.000431,0.002703
6086000,0.0324,0.013523,0.002678,0.000431,0.002468
6087000,0.0324,0.013523,0.002678,0.000431,0.002586
6088000,0.0324,0.013523,0.002678,0.000431,0.002821
6089000,0.0324,0.013523,0.002678,0.000431,0.002233
6090000,0.0324,0.013523,0.002678,0.000431,0.002468
6091000,0.0324,0.013523,0.002678,0.000431,0.002116
6092000,0.0324,0.013523,0.002678,0.000431,0.002938
6093000,0.0324,0.013523,0.002678,0.000431,0.002351
6094000,0.0324,0.013523,0.002678,0.000431,0.002468
6095000,0.0324,0.013523,0.002678,0.000431,0.003056
6096000,0.0324,0.013523,0.002678,0.000431,0.002938
6097000,0.0324,0.013523,0.002678,0.000431,0.002586
6098000,0.0324,0.013523,0.002678,0.000431,0.002938
6099000,0.0324,0.013523,0.002678,0.000431,0.002351
6100000,0.0324,0.013523,0.002678,0.000431,0.002586
6101000,0.0324,0.013523,0.002678,0.000431,0.001998
6102000,0.0324,0.013523,0.002678,0.000431,0.002703
6103000,0.0324,0.013523,0.002678,0.000431,0.002351
6104000,0.0324,0.013523,0.002678,0.000431,0.002351
6105000,0.0324,0.013523,0.002678,0.000431,0.002233
6106000,0.0324,0.013523,0.002678,0.000431,0.002468
6107000,0.0324,0.013523,0.002678,0.000431,0.002351
6108000,0.0324,0.013523,0.002678,0.000431,0.002233
6109000,0.0324,0.013523,0.002678,0.000431,0.002233
6110000,0.0324,0.013523,0.002678,0.000431,0.002233
6111000,0.0324,0.013523,0.002678,0.000431,0.002821
6112000,0.0324,0.013523,0.002678,0.000431,0.002586
6113000,0.0324,0.013523,0.002678,0.000431,0.002233
6114000,0.0324,0.013523,0.002678,0.000431,0.002233
6115000,0.0324,0.013523,0.002678,0.000431,0.002351
6116000,0.0324,0.013523,0.002678,0.000431,0.002468
6117000,0.0324,0.013523,0.002678,0.000431,0.002703
6118000,0.0324,0.013523,0.002678,0.000431,0.002821
6119000,0.0324,0.013523,0.002678,0.000431,0.002233
6120000,0.0324,0.013523,0.002678,0.000431,0.002821
6121000,0.0324,0.013523,0.002678,0.000431,0.002468
6122000,0.0324,0.013523,0.002678,0.000431,0.001998
6123000,0.0324,0.013523,0.002678,0.000431,0.002586
6124000,0.0324,0.013523,0.002678,0.000431,0.002821
6125000,0.0324,0.013523,0.002678,0.000431,0.003056
6126000,0.0324,0.013523,0.002678,0.000431,0.002586
6127000,0.0324,0.013523,0.002678,0.000431,0.002351
6128000,0.0324,0.013523,0.002678,0.000431,0.002586
6129000,0.0324,0.013523,0.002678,0.000431,0.002468
6130000,0.0324,0.013523,0.002678,0.000431,0.002351
6131000,0.0324,0.013523,0.002678,0.000431,0.002351
6132000,0.0324,0.013523,0.002678,0.000431,0.002703
6133000,0.0324,0.013523,0.002678,0.000431,0.002233
6134000,0.0324,0.013523,0.002678,0.000431,0.002116
6135000,0.0324,0.013523,0.002678,0.000431,0.002821
6136000,0.0324,0.013523,0.002678,0.000431,0.001998
6137000,0.0324,0.013523,0.002678,0.000431,0.002116
6138000,0.0324,0.013523,0.002678,0.000431,0.002586
6139000,0.0324,0.013523,0.002678,0.000431,0.001880
6140000,0.0324,0.013523,0.002678,0.000431,0.002586
6141000,0.0324,0.013523,0.002678,0.000431,0.002116
6142000,0.0324,0.013523,0.002678,0.000431,0.001998
6143000,0.0324,0.013523,0.002678,0.000431,0.002351
6144000,0.0324,0.013523,0.002678,0.000431,0.001880
6145000,0.0324,0.013523,0.002678,0.000431,0.002586
6146000,0.0324,0.013523,0.002678,0.000431,0.002821
6147000,0.0324,0.013523,0.002678,0.000431,0.002586
6148000,0.0324,0.013523,0.002678,0.000431,0.002351
6149000,0.0324,0.013523,0.002678,0.000431,0.002938
6150000,0.0324,0.013523,0.002678,0.000431,0.002938
6151000,0.0324,0.013523,0.002678,0.000431,0.002821
6152000,0.0324,0.013523,0.002678,0.000431,0.002351
6153000,0.0324,0.013523,0.002678,0.000431,0.002703
6154000,0.0324,0.013523,0.002678,0.000431,0.002703
6155000,0.0324,0.013523,0.002678,0.000431,0.003056
6156000,0.0324,0.013523,0.002678,0.000431,0.002703
6157000,0.0324,0.013523,0.002678,0.000431,0.002351
6158000,0.0324,0.013523,0.002678,0.000431,0.002468
6159000,0.0324,0.013523,0.002678,0.000431,0.002468
6160000,0.0324,0.013523,0.002678,0.000431,0.002586
6161000,0.0324,0.013523,0.002678,0.000431,0.002468
6162000,0.0324,0.013523,0.002678,0.000431,0.003056
6163000,0.0324,0.013523,0.002678,0.000431,0.002468
6164000,0.0324,0.013523,0.002678,0.000431,0.002116
6165000,0.0324,0.013523,0.002678,0.000431,0.002351
6166000,0.0324,0.013523,0.002678,0.000431,0.002233
6167000,0.0324,0.013523,0.002678,0.000431,0.002468
6168000,0.0324,0.013523,0.002678,0.000431,0.001763
6169000,0.0324,0.013523,0.002678,0.000431,0.001998
6170000,0.0324,0.013523,0.002678,0.000431,0.002351
6171000,0.0324,0.013523,0.002678,0.000431,0.002233
6172000,0.0324,0.013523,0.002678,0.000431,0.002703
6173000,0.0324,0.013523,0.002678,0.000431,0.002468
6174000,0.0324,0.013523,0.002678,0.000431,0.001763
6175000,0.0324,0.013523,0.002678,0.000431,0.001763
6176000,0.0324,0.013523,0.002678,0.000431,0.002468
6177000,0.0324,0.013523,0.002678,0.000431,0.002703
6178000,0.0324,0.013523,0.002678,0.000431,0.002116
6179000,0.0324,0.013523,0.002678,0.000431,0.001998
6180000,0.0324,0.013523,0.002678,0.000431,0.002116
6181000,0.0324,0.013523,0.002678,0.000431,0.002351
6182000,0.0324,0.013523,0.002678,0.000431,0.001998
6183000,0.0324,0.013523,0.002678,0.000431,0.002233
6184000,0.0324,0.013523,0.002678,0.000431,0.002351
6185000,0.0324,0.013523,0.002678,0.000431,0.002116
6186000,0.0324,0.013523,0.002678,0.000431,0.001998
6187000,0.0324,0.013523,0.002678,0.000431,0.002468
6188000,0.0324,0.013523,0.002678,0.000431,0.002116
6189000,0.0324,0.013523,0.002678,0.000431,0.002233
6190000,0.0324,0.013523,0.002678,0.000431,0.002351
6191000,0.0324,0.013523,0.002678,0.000431,0.002468
6192000,0.0324,0.013523,0.002678,0.000431,0.002586
6193000,0.0324,0.013523,0.002678,0.000431,0.001880
6194000,0.0324,0.013523,0.002678,0.000431,0.002233
6195000,0.0324,0.013523,0.002678,0.000431,0.002468
6196000,0.0324,0.013523,0.002678,0.000431,0.002233
6197000,0.0324,0.013523,0.002678,0.000431,0.002116
6198000,0.0324,0.013523,0.002678,0.000431,0.001763
6199000,0.0324,0.013523,0.002678,0.000431,0.001998
6200000,0.0324,0.013523,0.002678,0.000431,0.002351
6201000,0.0324,0.013523,0.002678,0.000431,0.002468
6202000,0.0324,0.013523,0.002678,0.000431,0.002116
6203000,0.0324,0.013523,0.002678,0.000431,0.002351
6204000,0.0324,0.013523,0.002678,0.000431,0.002233
6205000,0.0324,0.013523,0.002678,0.000431,0.002116
6206000,0.0324,0.013523,0.002678,0.000431,0.002116
6207000,0.0324,0.013523,0.002678,0.000431,0.001998
6208000,0.0324,0.013523,0.002678,0.000431,0.002468
6209000,0.0324,0.013523,0.002678,0.000431,0.002233
6210000,0.0324,0.013523,0.002678,0.000431,0.001410
6211000,0.0324,0.013523,0.002678,0.000431,0.002351
6212000,0.0324,0.013523,0.002678,0.000431,0.002351
6213000,0.0324,0.013523,0.002678,0.000431,0.001880
6214000,0.0324,0.013523,0.002678,0.000431,0.002116
6215000,0.0324,0.013523,0.002678,0.000431,0.002116
6216000,0.0324,0.013523,0.002678,0.000431,0.002586
6217000,0.0324,0.013523,0.002678,0.000431,0.002468
6218000,0.0324,0.013523,0.002678,0.000431,0.001998
6219000,0.0324,0.013523,0.002678,0.000431,0.002233
6220000,0.0324,0.013523,0.002678,0.000431,0.002233
6221000,0.0324,0.013523,0.002678,0.000431,0.002233
6222000,0.0324,0.013523,0.002678,0.000431,0.001998
6223000,0.0324,0.013523,0.002678,0.000431,0.002351
6224000,0.0324,0.013523,0.002678,0.000431,0.002586
6225000,0.0324,0.013523,0.002678,0.000431,0.002233
6226000,0.0324,0.013523,0.002678,0.000431,0.002468
6227000,0.0324,0.013523,0.002678,0.000431,0.002116
6228000,0.0324,0.013523,0.002678,0.000431,0.002233
6229000,0.0324,0.013523,0.002678,0.000431,0.002586
6230000,0.0324,0.013523,0.002678,0.000431,0.002351
6231000,0.0324,0.013523,0.002678,0.000431,0.002351
6232000,0.0324,0.013523,0.002678,0.000431,0.002116
6233000,0.0324,0.013523,0.002678,0.000431,0.002116
6234000,0.0324,0.013523,0.002678,0.000431,0.001880
6235000,0.0324,0.013523,0.002678,0.000431,0.002351
6236000,0.0324,0.013523,0.002678,0.000431,0.002468
6237000,0.0324,0.013523,0.002678,0.000431,0.002351
6238000,0.0324,0.013523,0.002678,0.000431,0.002351
6239000,0.0324,0.013523,0.002678,0.000431,0.002116
6240000,0.0324,0.013523,0.002678,0.000431,0.002468
6241000,0.0324,0.013523,0.002678,0.000431,0.002233
6242000,0.0324,0.013523,0.002678,0.000431,0.002703
6243000,0.0324,0.013523,0.002678,0.000431,0.002468
6244000,0.0324,0.013523,0.002678,0.000431,0.001880
6245000,0.0324,0.013523,0.002678,0.000431,0.002233
6246000,0.0324,0.013523,0.002678,0.000431,0.002351
6247000,0.0324,0.013523,0.002678,0.000431,0.002233
6248000,0.0324,0.013523,0.002678,0.000431,0.002468
6249000,0.0324,0.013523,0.002678,0.000431,0.002351
6250000,0.0324,0.013523,0.002678,0.000431,0.001880
6251000,0.0324,0.013523,0.002678,0.000431,0.002586
6252000,0.0324,0.013523,0.002678,0.000431,0.002468
6253000,0.0324,0.013523,0.002678,0.000431,0.002233
6254000,0.0324,0.013523,0.002678,0.000431,0.002703
6255000,0.0324,0.013523,0.002678,0.000431,0.002703
6256000,0.0324,0.013523,0.002678,0.000431,0.002233
6257000,0.0324,0.013523,0.002678,0.000431,0.002233
6258000,0.0324,0.013523,0.002678,0.000431,0.002233
6259000,0.0324,0.013523,0.002678,0.000431,0.002351
6260000,0.0324,0.013523,0.002678,0.000431,0.002351
6261000,0.0324,0.013523,0.002678,0.000431,0.002351
6262000,0.0324,0.013523,0.002678,0.000431,0.002116
6263000,0.0324,0.013523,0.002678,0.000431,0.002821
6264000,0.0324,0.013523,0.002678,0.000431,0.002116
6265000,0.0324,0.013523,0.002678,0.000431,0.002233
6266000,0.0324,0.013523,0.002678,0.000431,0.002468
6267000,0.0324,0.013523,0.002678,0.000431,0.002116
6268000,0.0324,0.013523,0.002678,0.000431,0.002116
6269000,0.0324,0.013523,0.002678,0.000431,0.002821
6270000,0.0324,0.013523,0.002678,0.000431,0.002703
6271000,0.0324,0.013523,0.002678,0.000431,0.002351
6272000,0.0324,0.013523,0.002678,0.000431,0.002233
6273000,0.0324,0.013523,0.002678,0.000431,0.002116
6274000,0.0324,0.013523,0.002678,0.000431,0.002233
6275000,0.0324,0.013523,0.002678,0.000431,0.002233
6276000,0.0324,0.013523,0.002678,0.000431,0.002116
6277000,0.0324,0.013523,0.002678,0.000431,0.002233
6278000,0.0324,0.013523,0.002678,0.000431,0.002351
6279000,0.0324,0.013523,0.002678,0.000431,0.002351
6280000,0.0324,0.013523,0.002678,0.000431,0.002351
6281000,0.0324,0.013523,0.002678,0.000431,0.002233
6282000,0.0324,0.013523,0.002678,0.000431,0.002233
6283000,0.0324,0.013523,0.002678,0.000431,0.002468
6284000,0.0324,0.013523,0.002678,0.000431,0.002116
6285000,0.0324,0.013523,0.002678,0.000431,0.002468
6286000,0.0324,0.013523,0.002678,0.000431,0.002468
6287000,0.0324,0.013523,0.002678,0.000431,0.002116
6288000,0.0324,0.013523,0.002678,0.000431,0.002351
6289000,0.0324,0.013523,0.002678,0.000431,0.002116
6290000,0.0324,0.013523,0.002678,0.000431,0.002703
6291000,0.0324,0.013523,0.002678,0.000431,0.002468
6292000,0.0324,0.013523,0.002678,0.000431,0.002468
6293000,0.0324,0.013523,0.002678,0.000431,0.002703
6294000,0.0324,0.013523,0.002678,0.000431,0.002468
6295000,0.0324,0.013523,0.002678,0.000431,0.002703
6296000,0.0324,0.013523,0.002678,0.000431,0.001998
6297000,0.0324,0.013523,0.002678,0.000431,0.002351
6298000,0.0324,0.013523,0.002678,0.000431,0.001763
6299000,0.0324,0.013523,0.002678,0.000431,0.002468
6300000,0.0324,0.013523,0.002678,0.000431,0.002586
6301000,0.0324,0.013523,0.002678,0.000431,0.001998
6302000,0.0324,0.013523,0.002678,0.000431,0.001880
6303000,0.0324,0.013523,0.002678,0.000431,0.002703
6304000,0.0324,0.013523,0.002678,0.000431,0.002233
6305000,0.0324,0.013523,0.002678,0.000431,0.002468
6306000,0.0324,0.013523,0.002678,0.000431,0.002233
6307000,0.0324,0.013523,0.002678,0.000431,0.002116
6308000,0.0324,0.013523,0.002678,0.000431,0.001998
6309000,0.0324,0.013523,0.002678,0.000431,0.002586
6310000,0.0324,0.013523,0.002678,0.000431,0.002351
6311000,0.0324,0.013523,0.002678,0.000431,0.001880
6312000,0.0324,0.013523,0.002678,0.000431,0.002116
6313000,0.0324,0.013523,0.002678,0.000431,0.002703
6314000,0.0324,0.013523,0.002678,0.000431,0.001998
6315000,0.0324,0.013523,0.002678,0.000431,0.002468
6316000,0.0324,0.013523,0.002678,0.000431,0.002468
6317000,0.0324,0.013523,0.002678,0.000431,0.001763
6318000,0.0324,0.013523,0.002678,0.000431,0.002703
6319000,0.0324,0.013523,0.002678,0.000431,0.002468
6320000,0.0324,0.013523,0.002678,0.000431,0.002351
6321000,0.0324,0.013523,0.002678,0.000431,0.002233
6322000,0.0324,0.013523,0.002678,0.000431,0.002116
6323000,0.0324,0.013523,0.002678,0.000431,0.001998
6324000,0.0324,0.013523,0.002678,0.000431,0.002351
6325000,0.0324,0.013523,0.002678,0.000431,0.002703
6326000,0.0324,0.013523,0.002678,0.000431,0.001763
6327000,0.0324,0.013523,0.002678,0.000431,0.001998
6328000,0.0324,0.013523,0.002678,0.000431,0.002703
6329000,0.0324,0.013523,0.002678,0.000431,0.001998
6330000,0.0324,0.013523,0.002678,0.000431,0.001998
6331000,0.0324,0.013523,0.002678,0.000431,0.002703
6332000,0.0324,0.013523,0.002678,0.000431,0.002116
6333000,0.0324,0.013523,0.002678,0.000431,0.002586
6334000,0.0324,0.013523,0.002678,0.000431,0.001998
6335000,0.0324,0.013523,0.002678,0.000431,0.002351
6336000,0.0324,0.013523,0.002678,0.000431,0.002351
6337000,0.0324,0.013523,0.002678,0.000431,0.002351
6338000,0.0324,0.013523,0.002678,0.000431,0.001528
6339000,0.0324,0.013523,0.002678,0.000431,0.002351
6340000,0.0324,0.013523,0.002678,0.000431,0.002703
6341000,0.0324,0.013523,0.002678,0.000431,0.001998
6342000,0.0324,0.013523,0.002678,0.000431,0.002351
6343000,0.0324,0.013523,0.002678,0.000431,0.001880
6344000,0.0324,0.013523,0.002678,0.000431,0.002586
6345000,0.0324,0.013523,0.002678,0.000431,0.001998
6346000,0.0324,0.013523,0.002678,0.000431,0.002351
6347000,0.0324,0.013523,0.002678,0.000431,0.001763
6348000,0.0324,0.013523,0.002678,0.000431,0.001998
6349000,0.0324,0.013523,0.002678,0.000431,0.002233
6350000,0.0324,0.013523,0.002678,0.000431,0.001998
6351000,0.0324,0.013523,0.002678,0.000431,0.002233
6352000,0.0324,0.013523,0.002678,0.000431,0.001998
6353000,0.0324,0.013523,0.002678,0.000431,0.001998
6354000,0.0324,0.013523,0.002678,0.000431,0.002116
6355000,0.0324,0.013523,0.002678,0.000431,0.001998
6356000,0.0324,0.013523,0.002678,0.000431,0.002351
6357000,0.0324,0.013523,0.002678,0.000431,0.002468
6358000,0.0324,0.013523,0.002678,0.000431,0.002233
6359000,0.0324,0.013523,0.002678,0.000431,0.002586
6360000,0.0324,0.013523,0.002678,0.000431,0.002703
6361000,0.0324,0.013523,0.002678,0.000431,0.002116
6362000,0.0324,0.013523,0.002678,0.000431,0.002468
6363000,0.0324,0.013523,0.002678,0.000431,0.002233
6364000,0.0324,0.013523,0.002678,0.000431,0.001998
6365000,0.0324,0.013523,0.002678,0.000431,0.002351
6366000,0.0324,0.013523,0.002678,0.000431,0.002116
6367000,0.0324,0.013523,0.002678,0.000431,0.002468
6368000,0.0324,0.013523,0.002678,0.000431,0.002233
6369000,0.0324,0.013523,0.002678,0.000431,0.001998
6370000,0.0324,0.013523,0.002678,0.000431,0.002233
6371000,0.0324,0.013523,0.002678,0.000431,0.002703
6372000,0.0324,0.013523,0.002678,0.000431,0.002351
6373000,0.0324,0.013523,0.002678,0.000431,0.002351
6374000,0.0324,0.013523,0.002678,0.000431,0.002116
6375000,0.0324,0.013523,0.002678,0.000431,0.002233
6376000,0.0324,0.013523,0.002678,0.000431,0.002233
6377000,0.0324,0.013523,0.002678,0.000431,0.002468
6378000,0.0324,0.013523,0.002678,0.000431,0.001880
6379000,0.0324,0.013523,0.002678,0.000431,0.001880
6380000,0.0324,0.013523,0.002678,0.000431,0.002351
6381000,0.0324,0.013523,0.002678,0.000431,0.002233
6382000,0.0324,0.013523,0.002678,0.000431,0.002703
6383000,0.0324,0.013523,0.002678,0.000431,0.002351
6384000,0.0324,0.013523,0.002678,0.000431,0.002116
6385000,0.0324,0.013523,0.002678,0.000431,0.002586
6386000,0.0324,0.013523,0.002678,0.000431,0.002703
6387000,0.0324,0.013523,0.002678,0.000431,0.001998
6388000,0.0324,0.013523,0.002678,0.000431,0.002468
6389000,0.0324,0.013523,0.002678,0.000431,0.001998
