Cycle,Area(mm^2),PeakDynamic(W),SubthresholdLeakage(W),GateLeakage(W),RunTimeDynamic(W)
7000000,0.0324,0.013523,0.002678,0.000431,0.002116
7001000,0.0324,0.013523,0.002678,0.000431,0.002468
7002000,0.0324,0.013523,0.002678,0.000431,0.002703
7003000,0.0324,0.013523,0.002678,0.000431,0.002351
7004000,0.0324,0.013523,0.002678,0.000431,0.002586
7005000,0.0324,0.013523,0.002678,0.000431,0.002468
7006000,0.0324,0.013523,0.002678,0.000431,0.002351
7007000,0.0324,0.013523,0.002678,0.000431,0.002468
7008000,0.0324,0.013523,0.002678,0.000431,0.002233
7009000,0.0324,0.013523,0.002678,0.000431,0.002233
7010000,0.0324,0.013523,0.002678,0.000431,0.002116
7011000,0.0324,0.013523,0.002678,0.000431,0.002586
7012000,0.0324,0.013523,0.002678,0.000431,0.002468
7013000,0.0324,0.013523,0.002678,0.000431,0.002938
7014000,0.0324,0.013523,0.002678,0.000431,0.002351
7015000,0.0324,0.013523,0.002678,0.000431,0.002821
7016000,0.0324,0.013523,0.002678,0.000431,0.002351
7017000,0.0324,0.013523,0.002678,0.000431,0.001998
7018000,0.0324,0.013523,0.002678,0.000431,0.001998
7019000,0.0324,0.013523,0.002678,0.000431,0.002821
7020000,0.0324,0.013523,0.002678,0.000431,0.002351
7021000,0.0324,0.013523,0.002678,0.000431,0.002586
7022000,0.0324,0.013523,0.002678,0.000431,0.002233
7023000,0.0324,0.013523,0.002678,0.000431,0.002233
7024000,0.0324,0.013523,0.002678,0.000431,0.001998
7025000,0.0324,0.013523,0.002678,0.000431,0.002586
7026000,0.0324,0.013523,0.002678,0.000431,0.002586
7027000,0.0324,0.013523,0.002678,0.000431,0.002233
7028000,0.0324,0.013523,0.002678,0.000431,0.002233
7029000,0.0324,0.013523,0.002678,0.000431,0.002468
7030000,0.0324,0.013523,0.002678,0.000431,0.002468
7031000,0.0324,0.013523,0.002678,0.000431,0.002586
7032000,0.0324,0.013523,0.002678,0.000431,0.002468
7033000,0.0324,0.013523,0.002678,0.000431,0.002116
7034000,0.0324,0.013523,0.002678,0.000431,0.002351
7035000,0.0324,0.013523,0.002678,0.000431,0.002351
7036000,0.0324,0.013523,0.002678,0.000431,0.002351
7037000,0.0324,0.013523,0.002678,0.000431,0.002233
7038000,0.0324,0.013523,0.002678,0.000431,0.002351
7039000,0.0324,0.013523,0.002678,0.000431,0.002351
7040000,0.0324,0.013523,0.002678,0.000431,0.002468
7041000,0.0324,0.013523,0.002678,0.000431,0.001998
7042000,0.0324,0.013523,0.002678,0.000431,0.002351
7043000,0.0324,0.013523,0.002678,0.000431,0.002233
7044000,0.0324,0.013523,0.002678,0.000431,0.002233
7045000,0.0324,0.013523,0.002678,0.000431,0.002703
7046000,0.0324,0.013523,0.002678,0.000431,0.002468
7047000,0.0324,0.013523,0.002678,0.000431,0.002468
7048000,0.0324,0.013523,0.002678,0.000431,0.002233
7049000,0.0324,0.013523,0.002678,0.000431,0.002586
7050000,0.0324,0.013523,0.002678,0.000431,0.002703
7051000,0.0324,0.013523,0.002678,0.000431,0.002703
7052000,0.0324,0.013523,0.002678,0.000431,0.002703
7053000,0.0324,0.013523,0.002678,0.000431,0.002351
7054000,0.0324,0.013523,0.002678,0.000431,0.002821
7055000,0.0324,0.013523,0.002678,0.000431,0.002468
7056000,0.0324,0.013523,0.002678,0.000431,0.002938
7057000,0.0324,0.013523,0.002678,0.000431,0.002468
7058000,0.0324,0.013523,0.002678,0.000431,0.003056
7059000,0.0324,0.013523,0.002678,0.000431,0.002821
7060000,0.0324,0.013523,0.002678,0.000431,0.002703
7061000,0.0324,0.013523,0.002678,0.000431,0.002821
7062000,0.0324,0.013523,0.002678,0.000431,0.002703
7063000,0.0324,0.013523,0.002678,0.000431,0.002586
7064000,0.0324,0.013523,0.002678,0.000431,0.002468
7065000,0.0324,0.013523,0.002678,0.000431,0.002703
7066000,0.0324,0.013523,0.002678,0.000431,0.002586
7067000,0.0324,0.013523,0.002678,0.000431,0.002586
7068000,0.0324,0.013523,0.002678,0.000431,0.002586
7069000,0.0324,0.013523,0.002678,0.000431,0.002938
7070000,0.0324,0.013523,0.002678,0.000431,0.002233
7071000,0.0324,0.013523,0.002678,0.000431,0.002468
7072000,0.0324,0.013523,0.002678,0.000431,0.002116
7073000,0.0324,0.013523,0.002678,0.000431,0.002233
7074000,0.0324,0.013523,0.002678,0.000431,0.002351
7075000,0.0324,0.013523,0.002678,0.000431,0.002351
7076000,0.0324,0.013523,0.002678,0.000431,0.002938
7077000,0.0324,0.013523,0.002678,0.000431,0.002116
7078000,0.0324,0.013523,0.002678,0.000431,0.002468
7079000,0.0324,0.013523,0.002678,0.000431,0.002233
7080000,0.0324,0.013523,0.002678,0.000431,0.002233
7081000,0.0324,0.013523,0.002678,0.000431,0.002586
7082000,0.0324,0.013523,0.002678,0.000431,0.002586
7083000,0.0324,0.013523,0.002678,0.000431,0.002703
7084000,0.0324,0.013523,0.002678,0.000431,0.002821
7085000,0.0324,0.013523,0.002678,0.000431,0.002351
7086000,0.0324,0.013523,0.002678,0.000431,0.002586
7087000,0.0324,0.013523,0.002678,0.000431,0.002938
7088000,0.0324,0.013523,0.002678,0.000431,0.002351
7089000,0.0324,0.013523,0.002678,0.000431,0.002586
7090000,0.0324,0.013523,0.002678,0.000431,0.002821
7091000,0.0324,0.013523,0.002678,0.000431,0.002468
7092000,0.0324,0.013523,0.002678,0.000431,0.001880
7093000,0.0324,0.013523,0.002678,0.000431,0.002468
7094000,0.0324,0.013523,0.002678,0.000431,0.002233
7095000,0.0324,0.013523,0.002678,0.000431,0.002351
7096000,0.0324,0.013523,0.002678,0.000431,0.002586
7097000,0.0324,0.013523,0.002678,0.000431,0.002351
7098000,0.0324,0.013523,0.002678,0.000431,0.002233
7099000,0.0324,0.013523,0.002678,0.000431,0.002468
7100000,0.0324,0.013523,0.002678,0.000431,0.003056
7101000,0.0324,0.013523,0.002678,0.000431,0.002468
7102000,0.0324,0.013523,0.002678,0.000431,0.002938
7103000,0.0324,0.013523,0.002678,0.000431,0.002351
7104000,0.0324,0.013523,0.002678,0.000431,0.002468
7105000,0.0324,0.013523,0.002678,0.000431,0.002351
7106000,0.0324,0.013523,0.002678,0.000431,0.002468
7107000,0.0324,0.013523,0.002678,0.000431,0.002703
7108000,0.0324,0.013523,0.002678,0.000431,0.002821
7109000,0.0324,0.013523,0.002678,0.000431,0.002586
7110000,0.0324,0.013523,0.002678,0.000431,0.002468
7111000,0.0324,0.013523,0.002678,0.000431,0.002938
7112000,0.0324,0.013523,0.002678,0.000431,0.002468
7113000,0.0324,0.013523,0.002678,0.000431,0.002703
7114000,0.0324,0.013523,0.002678,0.000431,0.002821
7115000,0.0324,0.013523,0.002678,0.000431,0.002703
7116000,0.0324,0.013523,0.002678,0.000431,0.002821
7117000,0.0324,0.013523,0.002678,0.000431,0.002938
7118000,0.0324,0.013523,0.002678,0.000431,0.002468
7119000,0.0324,0.013523,0.002678,0.000431,0.002586
7120000,0.0324,0.013523,0.002678,0.000431,0.002468
7121000,0.0324,0.013523,0.002678,0.000431,0.002351
7122000,0.0324,0.013523,0.002678,0.000431,0.002586
7123000,0.0324,0.013523,0.002678,0.000431,0.002703
7124000,0.0324,0.013523,0.002678,0.000431,0.002821
7125000,0.0324,0.013523,0.002678,0.000431,0.002468
7126000,0.0324,0.013523,0.002678,0.000431,0.002233
7127000,0.0324,0.013523,0.002678,0.000431,0.002586
7128000,0.0324,0.013523,0.002678,0.000431,0.002351
7129000,0.0324,0.013523,0.002678,0.000431,0.002821
7130000,0.0324,0.013523,0.002678,0.000431,0.003173
7131000,0.0324,0.013523,0.002678,0.000431,0.002821
7132000,0.0324,0.013523,0.002678,0.000431,0.002703
7133000,0.0324,0.013523,0.002678,0.000431,0.002586
7134000,0.0324,0.013523,0.002678,0.000431,0.002116
7135000,0.0324,0.013523,0.002678,0.000431,0.002468
7136000,0.0324,0.013523,0.002678,0.000431,0.002586
7137000,0.0324,0.013523,0.002678,0.000431,0.003173
7138000,0.0324,0.013523,0.002678,0.000431,0.002586
7139000,0.0324,0.013523,0.002678,0.000431,0.002821
7140000,0.0324,0.013523,0.002678,0.000431,0.002468
7141000,0.0324,0.013523,0.002678,0.000431,0.002116
7142000,0.0324,0.013523,0.002678,0.000431,0.003173
7143000,0.0324,0.013523,0.002678,0.000431,0.002116
7144000,0.0324,0.013523,0.002678,0.000431,0.002821
7145000,0.0324,0.013523,0.002678,0.000431,0.002938
7146000,0.0324,0.013523,0.002678,0.000431,0.002586
7147000,0.0324,0.013523,0.002678,0.000431,0.002586
7148000,0.0324,0.013523,0.002678,0.000431,0.002116
7149000,0.0324,0.013523,0.002678,0.000431,0.003056
7150000,0.0324,0.013523,0.002678,0.000431,0.002586
7151000,0.0324,0.013523,0.002678,0.000431,0.002468
7152000,0.0324,0.013523,0.002678,0.000431,0.002703
7153000,0.0324,0.013523,0.002678,0.000431,0.002821
7154000,0.0324,0.013523,0.002678,0.000431,0.002586
7155000,0.0324,0.013523,0.002678,0.000431,0.002703
7156000,0.0324,0.013523,0.002678,0.000431,0.001998
7157000,0.0324,0.013523,0.002678,0.000431,0.003056
7158000,0.0324,0.013523,0.002678,0.000431,0.002586
7159000,0.0324,0.013523,0.002678,0.000431,0.002586
7160000,0.0324,0.013523,0.002678,0.000431,0.002703
7161000,0.0324,0.013523,0.002678,0.000431,0.002586
7162000,0.0324,0.013523,0.002678,0.000431,0.002116
7163000,0.0324,0.013523,0.002678,0.000431,0.002703
7164000,0.0324,0.013523,0.002678,0.000431,0.002703
7165000,0.0324,0.013523,0.002678,0.000431,0.002468
7166000,0.0324,0.013523,0.002678,0.000431,0.002586
7167000,0.0324,0.013523,0.002678,0.000431,0.002703
7168000,0.0324,0.013523,0.002678,0.000431,0.002351
7169000,0.0324,0.013523,0.002678,0.000431,0.002586
7170000,0.0324,0.013523,0.002678,0.000431,0.002351
7171000,0.0324,0.013523,0.002678,0.000431,0.002233
7172000,0.0324,0.013523,0.002678,0.000431,0.002703
7173000,0.0324,0.013523,0.002678,0.000431,0.002821
7174000,0.0324,0.013523,0.002678,0.000431,0.002821
7175000,0.0324,0.013523,0.002678,0.000431,0.002703
7176000,0.0324,0.013523,0.002678,0.000431,0.002468
7177000,0.0324,0.013523,0.002678,0.000431,0.002586
7178000,0.0324,0.013523,0.002678,0.000431,0.002703
7179000,0.0324,0.013523,0.002678,0.000431,0.002351
7180000,0.0324,0.013523,0.002678,0.000431,0.002351
7181000,0.0324,0.013523,0.002678,0.000431,0.002586
7182000,0.0324,0.013523,0.002678,0.000431,0.002468
7183000,0.0324,0.013523,0.002678,0.000431,0.002351
7184000,0.0324,0.013523,0.002678,0.000431,0.002586
7185000,0.0324,0.013523,0.002678,0.000431,0.002586
7186000,0.0324,0.013523,0.002678,0.000431,0.002703
7187000,0.0324,0.013523,0.002678,0.000431,0.002586
7188000,0.0324,0.013523,0.002678,0.000431,0.002821
7189000,0.0324,0.013523,0.002678,0.000431,0.002703
7190000,0.0324,0.013523,0.002678,0.000431,0.002586
7191000,0.0324,0.013523,0.002678,0.000431,0.002468
7192000,0.0324,0.013523,0.002678,0.000431,0.002468
7193000,0.0324,0.013523,0.002678,0.000431,0.002586
7194000,0.0324,0.013523,0.002678,0.000431,0.002351
7195000,0.0324,0.013523,0.002678,0.000431,0.002703
7196000,0.0324,0.013523,0.002678,0.000431,0.002703
7197000,0.0324,0.013523,0.002678,0.000431,0.002586
7198000,0.0324,0.013523,0.002678,0.000431,0.002703
7199000,0.0324,0.013523,0.002678,0.000431,0.002468
7200000,0.0324,0.013523,0.002678,0.000431,0.002586
7201000,0.0324,0.013523,0.002678,0.000431,0.002703
7202000,0.0324,0.013523,0.002678,0.000431,0.002586
7203000,0.0324,0.013523,0.002678,0.000431,0.002468
7204000,0.0324,0.013523,0.002678,0.000431,0.002586
7205000,0.0324,0.013523,0.002678,0.000431,0.002821
7206000,0.0324,0.013523,0.002678,0.000431,0.002938
7207000,0.0324,0.013523,0.002678,0.000431,0.002351
7208000,0.0324,0.013523,0.002678,0.000431,0.002586
7209000,0.0324,0.013523,0.002678,0.000431,0.002351
7210000,0.0324,0.013523,0.002678,0.000431,0.002468
7211000,0.0324,0.013523,0.002678,0.000431,0.002821
7212000,0.0324,0.013523,0.002678,0.000431,0.002586
7213000,0.0324,0.013523,0.002678,0.000431,0.002116
7214000,0.0324,0.013523,0.002678,0.000431,0.002468
7215000,0.0324,0.013523,0.002678,0.000431,0.002468
7216000,0.0324,0.013523,0.002678,0.000431,0.002586
7217000,0.0324,0.013523,0.002678,0.000431,0.002586
7218000,0.0324,0.013523,0.002678,0.000431,0.002468
7219000,0.0324,0.013523,0.002678,0.000431,0.002233
7220000,0.0324,0.013523,0.002678,0.000431,0.002351
7221000,0.0324,0.013523,0.002678,0.000431,0.002586
7222000,0.0324,0.013523,0.002678,0.000431,0.002233
7223000,0.0324,0.013523,0.002678,0.000431,0.002821
7224000,0.0324,0.013523,0.002678,0.000431,0.002233
7225000,0.0324,0.013523,0.002678,0.000431,0.002703
7226000,0.0324,0.013523,0.002678,0.000431,0.002586
7227000,0.0324,0.013523,0.002678,0.000431,0.002233
7228000,0.0324,0.013523,0.002678,0.000431,0.002703
7229000,0.0324,0.013523,0.002678,0.000431,0.002233
7230000,0.0324,0.013523,0.002678,0.000431,0.002586
7231000,0.0324,0.013523,0.002678,0.000431,0.002586
7232000,0.0324,0.013523,0.002678,0.000431,0.002703
7233000,0.0324,0.013523,0.002678,0.000431,0.002703
7234000,0.0324,0.013523,0.002678,0.000431,0.002586
7235000,0.0324,0.013523,0.002678,0.000431,0.002351
7236000,0.0324,0.013523,0.002678,0.000431,0.002938
7237000,0.0324,0.013523,0.002678,0.000431,0.002821
7238000,0.0324,0.013523,0.002678,0.000431,0.002586
7239000,0.0324,0.013523,0.002678,0.000431,0.002703
7240000,0.0324,0.013523,0.002678,0.000431,0.002821
7241000,0.0324,0.013523,0.002678,0.000431,0.002351
7242000,0.0324,0.013523,0.002678,0.000431,0.002586
7243000,0.0324,0.013523,0.002678,0.000431,0.002703
7244000,0.0324,0.013523,0.002678,0.000431,0.002938
7245000,0.0324,0.013523,0.002678,0.000431,0.002468
7246000,0.0324,0.013523,0.002678,0.000431,0.002821
7247000,0.0324,0.013523,0.002678,0.000431,0.002233
7248000,0.0324,0.013523,0.002678,0.000431,0.002351
7249000,0.0324,0.013523,0.002678,0.000431,0.002468
7250000,0.0324,0.013523,0.002678,0.000431,0.002586
7251000,0.0324,0.013523,0.002678,0.000431,0.002586
7252000,0.0324,0.013523,0.002678,0.000431,0.002703
7253000,0.0324,0.013523,0.002678,0.000431,0.002468
7254000,0.0324,0.013523,0.002678,0.000431,0.002586
7255000,0.0324,0.013523,0.002678,0.000431,0.002351
7256000,0.0324,0.013523,0.002678,0.000431,0.002821
7257000,0.0324,0.013523,0.002678,0.000431,0.003056
7258000,0.0324,0.013523,0.002678,0.000431,0.002351
7259000,0.0324,0.013523,0.002678,0.000431,0.002821
7260000,0.0324,0.013523,0.002678,0.000431,0.002703
7261000,0.0324,0.013523,0.002678,0.000431,0.002351
7262000,0.0324,0.013523,0.002678,0.000431,0.002586
7263000,0.0324,0.013523,0.002678,0.000431,0.002468
7264000,0.0324,0.013523,0.002678,0.000431,0.002351
7265000,0.0324,0.013523,0.002678,0.000431,0.002586
7266000,0.0324,0.013523,0.002678,0.000431,0.002703
7267000,0.0324,0.013523,0.002678,0.000431,0.002821
7268000,0.0324,0.013523,0.002678,0.000431,0.003056
7269000,0.0324,0.013523,0.002678,0.000431,0.002821
7270000,0.0324,0.013523,0.002678,0.000431,0.002938
7271000,0.0324,0.013523,0.002678,0.000431,0.001763
7272000,0.0324,0.013523,0.002678,0.000431,0.002703
7273000,0.0324,0.013523,0.002678,0.000431,0.001998
7274000,0.0324,0.013523,0.002678,0.000431,0.002586
7275000,0.0324,0.013523,0.002678,0.000431,0.002703
7276000,0.0324,0.013523,0.002678,0.000431,0.002821
7277000,0.0324,0.013523,0.002678,0.000431,0.002586
7278000,0.0324,0.013523,0.002678,0.000431,0.002703
7279000,0.0324,0.013523,0.002678,0.000431,0.002586
7280000,0.0324,0.013523,0.002678,0.000431,0.002351
7281000,0.0324,0.013523,0.002678,0.000431,0.002703
7282000,0.0324,0.013523,0.002678,0.000431,0.002351
7283000,0.0324,0.013523,0.002678,0.000431,0.002116
7284000,0.0324,0.013523,0.002678,0.000431,0.002351
7285000,0.0324,0.013523,0.002678,0.000431,0.002821
7286000,0.0324,0.013523,0.002678,0.000431,0.002468
7287000,0.0324,0.013523,0.002678,0.000431,0.002586
7288000,0.0324,0.013523,0.002678,0.000431,0.002586
7289000,0.0324,0.013523,0.002678,0.000431,0.002233
7290000,0.0324,0.013523,0.002678,0.000431,0.002703
7291000,0.0324,0.013523,0.002678,0.000431,0.002586
7292000,0.0324,0.013523,0.002678,0.000431,0.002821
7293000,0.0324,0.013523,0.002678,0.000431,0.002468
7294000,0.0324,0.013523,0.002678,0.000431,0.002703
7295000,0.0324,0.013523,0.002678,0.000431,0.002351
7296000,0.0324,0.013523,0.002678,0.000431,0.002468
7297000,0.0324,0.013523,0.002678,0.000431,0.002703
7298000,0.0324,0.013523,0.002678,0.000431,0.002468
7299000,0.0324,0.013523,0.002678,0.000431,0.002703
7300000,0.0324,0.013523,0.002678,0.000431,0.002586
7301000,0.0324,0.013523,0.002678,0.000431,0.002586
7302000,0.0324,0.013523,0.002678,0.000431,0.002586
7303000,0.0324,0.013523,0.002678,0.000431,0.002351
7304000,0.0324,0.013523,0.002678,0.000431,0.002468
7305000,0.0324,0.013523,0.002678,0.000431,0.002586
7306000,0.0324,0.013523,0.002678,0.000431,0.002703
7307000,0.0324,0.013523,0.002678,0.000431,0.002468
7308000,0.0324,0.013523,0.002678,0.000431,0.002468
7309000,0.0324,0.013523,0.002678,0.000431,0.002586
7310000,0.0324,0.013523,0.002678,0.000431,0.002586
7311000,0.0324,0.013523,0.002678,0.000431,0.002703
7312000,0.0324,0.013523,0.002678,0.000431,0.002351
7313000,0.0324,0.013523,0.002678,0.000431,0.002821
7314000,0.0324,0.013523,0.002678,0.000431,0.002703
7315000,0.0324,0.013523,0.002678,0.000431,0.002586
7316000,0.0324,0.013523,0.002678,0.000431,0.002233
7317000,0.0324,0.013523,0.002678,0.000431,0.002468
7318000,0.0324,0.013523,0.002678,0.000431,0.002703
7319000,0.0324,0.013523,0.002678,0.000431,0.003056
7320000,0.0324,0.013523,0.002678,0.000431,0.002586
7321000,0.0324,0.013523,0.002678,0.000431,0.002586
7322000,0.0324,0.013523,0.002678,0.000431,0.003056
7323000,0.0324,0.013523,0.002678,0.000431,0.002703
7324000,0.0324,0.013523,0.002678,0.000431,0.002586
7325000,0.0324,0.013523,0.002678,0.000431,0.002233
7326000,0.0324,0.013523,0.002678,0.000431,0.002468
7327000,0.0324,0.013523,0.002678,0.000431,0.002468
7328000,0.0324,0.013523,0.002678,0.000431,0.002703
7329000,0.0324,0.013523,0.002678,0.000431,0.002586
7330000,0.0324,0.013523,0.002678,0.000431,0.002586
7331000,0.0324,0.013523,0.002678,0.000431,0.002351
7332000,0.0324,0.013523,0.002678,0.000431,0.002468
7333000,0.0324,0.013523,0.002678,0.000431,0.002468
7334000,0.0324,0.013523,0.002678,0.000431,0.002703
7335000,0.0324,0.013523,0.002678,0.000431,0.002586
7336000,0.0324,0.013523,0.002678,0.000431,0.002586
7337000,0.0324,0.013523,0.002678,0.000431,0.002703
7338000,0.0324,0.013523,0.002678,0.000431,0.002703
7339000,0.0324,0.013523,0.002678,0.000431,0.002586
7340000,0.0324,0.013523,0.002678,0.000431,0.002821
7341000,0.0324,0.013523,0.002678,0.000431,0.002351
7342000,0.0324,0.013523,0.002678,0.000431,0.002468
7343000,0.0324,0.013523,0.002678,0.000431,0.002586
7344000,0.0324,0.013523,0.002678,0.000431,0.002703
7345000,0.0324,0.013523,0.002678,0.000431,0.002351
7346000,0.0324,0.013523,0.002678,0.000431,0.002938
7347000,0.0324,0.013523,0.002678,0.000431,0.002351
7348000,0.0324,0.013523,0.002678,0.000431,0.002821
7349000,0.0324,0.013523,0.002678,0.000431,0.002821
7350000,0.0324,0.013523,0.002678,0.000431,0.002233
7351000,0.0324,0.013523,0.002678,0.000431,0.002233
7352000,0.0324,0.013523,0.002678,0.000431,0.002821
7353000,0.0324,0.013523,0.002678,0.000431,0.002468
7354000,0.0324,0.013523,0.002678,0.000431,0.002233
7355000,0.0324,0.013523,0.002678,0.000431,0.002586
7356000,0.0324,0.013523,0.002678,0.000431,0.002586
7357000,0.0324,0.013523,0.002678,0.000431,0.002938
7358000,0.0324,0.013523,0.002678,0.000431,0.002586
7359000,0.0324,0.013523,0.002678,0.000431,0.002703
7360000,0.0324,0.013523,0.002678,0.000431,0.002586
7361000,0.0324,0.013523,0.002678,0.000431,0.002938
7362000,0.0324,0.013523,0.002678,0.000431,0.002703
7363000,0.0324,0.013523,0.002678,0.000431,0.002233
7364000,0.0324,0.013523,0.002678,0.000431,0.002468
7365000,0.0324,0.013523,0.002678,0.000431,0.002351
7366000,0.0324,0.013523,0.002678,0.000431,0.003173
7367000,0.0324,0.013523,0.002678,0.000431,0.002233
7368000,0.0324,0.013523,0.002678,0.000431,0.002703
7369000,0.0324,0.013523,0.002678,0.000431,0.002468
7370000,0.0324,0.013523,0.002678,0.000431,0.002586
7371000,0.0324,0.013523,0.002678,0.000431,0.002586
7372000,0.0324,0.013523,0.002678,0.000431,0.002821
7373000,0.0324,0.013523,0.002678,0.000431,0.002116
7374000,0.0324,0.013523,0.002678,0.000431,0.002703
7375000,0.0324,0.013523,0.002678,0.000431,0.002586
7376000,0.0324,0.013523,0.002678,0.000431,0.002586
7377000,0.0324,0.013523,0.002678,0.000431,0.002703
7378000,0.0324,0.013523,0.002678,0.000431,0.002703
7379000,0.0324,0.013523,0.002678,0.000431,0.002586
7380000,0.0324,0.013523,0.002678,0.000431,0.002586
7381000,0.0324,0.013523,0.002678,0.000431,0.002703
7382000,0.0324,0.013523,0.002678,0.000431,0.002116
7383000,0.0324,0.013523,0.002678,0.000431,0.002351
7384000,0.0324,0.013523,0.002678,0.000431,0.002703
7385000,0.0324,0.013523,0.002678,0.000431,0.002468
7386000,0.0324,0.013523,0.002678,0.000431,0.002703
7387000,0.0324,0.013523,0.002678,0.000431,0.002351
7388000,0.0324,0.013523,0.002678,0.000431,0.002468
7389000,0.0324,0.013523,0.002678,0.000431,0.002233
