Cycle,Area(mm^2),PeakDynamic(W),SubthresholdLeakage(W),GateLeakage(W),RunTimeDynamic(W)
4000000,0.0324,0.013523,0.002678,0.000431,0.007169
4001000,0.0324,0.013523,0.002678,0.000431,0.006934
4002000,0.0324,0.013523,0.002678,0.000431,0.006464
4003000,0.0324,0.013523,0.002678,0.000431,0.007052
4004000,0.0324,0.013523,0.002678,0.000431,0.006817
4005000,0.0324,0.013523,0.002678,0.000431,0.006582
4006000,0.0324,0.013523,0.002678,0.000431,0.006934
4007000,0.0324,0.013523,0.002678,0.000431,0.006699
4008000,0.0324,0.013523,0.002678,0.000431,0.007052
4009000,0.0324,0.013523,0.002678,0.000431,0.006582
4010000,0.0324,0.013523,0.002678,0.000431,0.006817
4011000,0.0324,0.013523,0.002678,0.000431,0.006464
4012000,0.0324,0.013523,0.002678,0.000431,0.007052
4013000,0.0324,0.013523,0.002678,0.000431,0.006934
4014000,0.0324,0.013523,0.002678,0.000431,0.006582
4015000,0.0324,0.013523,0.002678,0.000431,0.006582
4016000,0.0324,0.013523,0.002678,0.000431,0.006934
4017000,0.0324,0.013523,0.002678,0.000431,0.006934
4018000,0.0324,0.013523,0.002678,0.000431,0.006817
4019000,0.0324,0.013523,0.002678,0.000431,0.006582
4020000,0.0324,0.013523,0.002678,0.000431,0.006817
4021000,0.0324,0.013523,0.002678,0.000431,0.007052
4022000,0.0324,0.013523,0.002678,0.000431,0.006464
4023000,0.0324,0.013523,0.002678,0.000431,0.007287
4024000,0.0324,0.013523,0.002678,0.000431,0.006699
4025000,0.0324,0.013523,0.002678,0.000431,0.006582
4026000,0.0324,0.013523,0.002678,0.000431,0.006347
4027000,0.0324,0.013523,0.002678,0.000431,0.005524
4028000,0.0324,0.013523,0.002678,0.000431,0.005994
4029000,0.0324,0.013523,0.002678,0.000431,0.006111
4030000,0.0324,0.013523,0.002678,0.000431,0.005876
4031000,0.0324,0.013523,0.002678,0.000431,0.005994
4032000,0.0324,0.013523,0.002678,0.000431,0.006464
4033000,0.0324,0.013523,0.002678,0.000431,0.005876
4034000,0.0324,0.013523,0.002678,0.000431,0.005994
4035000,0.0324,0.013523,0.002678,0.000431,0.005876
4036000,0.0324,0.013523,0.002678,0.000431,0.006229
4037000,0.0324,0.013523,0.002678,0.000431,0.006582
4038000,0.0324,0.013523,0.002678,0.000431,0.006347
4039000,0.0324,0.013523,0.002678,0.000431,0.006111
4040000,0.0324,0.013523,0.002678,0.000431,0.006464
4041000,0.0324,0.013523,0.002678,0.000431,0.006464
4042000,0.0324,0.013523,0.002678,0.000431,0.005994
4043000,0.0324,0.013523,0.002678,0.000431,0.006111
4044000,0.0324,0.013523,0.002678,0.000431,0.005994
4045000,0.0324,0.013523,0.002678,0.000431,0.006464
4046000,0.0324,0.013523,0.002678,0.000431,0.006464
4047000,0.0324,0.013523,0.002678,0.000431,0.006229
4048000,0.0324,0.013523,0.002678,0.000431,0.006111
4049000,0.0324,0.013523,0.002678,0.000431,0.005994
4050000,0.0324,0.013523,0.002678,0.000431,0.005876
4051000,0.0324,0.013523,0.002678,0.000431,0.006111
4052000,0.0324,0.013523,0.002678,0.000431,0.006582
4053000,0.0324,0.013523,0.002678,0.000431,0.005876
4054000,0.0324,0.013523,0.002678,0.000431,0.005759
4055000,0.0324,0.013523,0.002678,0.000431,0.005994
4056000,0.0324,0.013523,0.002678,0.000431,0.006582
4057000,0.0324,0.013523,0.002678,0.000431,0.006582
4058000,0.0324,0.013523,0.002678,0.000431,0.005994
4059000,0.0324,0.013523,0.002678,0.000431,0.006229
4060000,0.0324,0.013523,0.002678,0.000431,0.006347
4061000,0.0324,0.013523,0.002678,0.000431,0.005994
4062000,0.0324,0.013523,0.002678,0.000431,0.006229
4063000,0.0324,0.013523,0.002678,0.000431,0.006464
4064000,0.0324,0.013523,0.002678,0.000431,0.005759
4065000,0.0324,0.013523,0.002678,0.000431,0.006229
4066000,0.0324,0.013523,0.002678,0.000431,0.006582
4067000,0.0324,0.013523,0.002678,0.000431,0.006111
4068000,0.0324,0.013523,0.002678,0.000431,0.006229
4069000,0.0324,0.013523,0.002678,0.000431,0.006111
4070000,0.0324,0.013523,0.002678,0.000431,0.006229
4071000,0.0324,0.013523,0.002678,0.000431,0.006347
4072000,0.0324,0.013523,0.002678,0.000431,0.006111
4073000,0.0324,0.013523,0.002678,0.000431,0.006111
4074000,0.0324,0.013523,0.002678,0.000431,0.005876
4075000,0.0324,0.013523,0.002678,0.000431,0.005759
4076000,0.0324,0.013523,0.002678,0.000431,0.006464
4077000,0.0324,0.013523,0.002678,0.000431,0.006347
4078000,0.0324,0.013523,0.002678,0.000431,0.006111
4079000,0.0324,0.013523,0.002678,0.000431,0.005994
4080000,0.0324,0.013523,0.002678,0.000431,0.006347
4081000,0.0324,0.013523,0.002678,0.000431,0.005994
4082000,0.0324,0.013523,0.002678,0.000431,0.005994
4083000,0.0324,0.013523,0.002678,0.000431,0.006347
4084000,0.0324,0.013523,0.002678,0.000431,0.005994
4085000,0.0324,0.013523,0.002678,0.000431,0.006229
4086000,0.0324,0.013523,0.002678,0.000431,0.006111
4087000,0.0324,0.013523,0.002678,0.000431,0.006111
4088000,0.0324,0.013523,0.002678,0.000431,0.005994
4089000,0.0324,0.013523,0.002678,0.000431,0.005994
4090000,0.0324,0.013523,0.002678,0.000431,0.006111
4091000,0.0324,0.013523,0.002678,0.000431,0.006347
4092000,0.0324,0.013523,0.002678,0.000431,0.005994
4093000,0.0324,0.013523,0.002678,0.000431,0.006347
4094000,0.0324,0.013523,0.002678,0.000431,0.006111
4095000,0.0324,0.013523,0.002678,0.000431,0.006111
4096000,0.0324,0.013523,0.002678,0.000431,0.006464
4097000,0.0324,0.013523,0.002678,0.000431,0.006347
4098000,0.0324,0.013523,0.002678,0.000431,0.006111
4099000,0.0324,0.013523,0.002678,0.000431,0.006464
4100000,0.0324,0.013523,0.002678,0.000431,0.006111
4101000,0.0324,0.013523,0.002678,0.000431,0.006699
4102000,0.0324,0.013523,0.002678,0.000431,0.006347
4103000,0.0324,0.013523,0.002678,0.000431,0.006347
4104000,0.0324,0.013523,0.002678,0.000431,0.006111
4105000,0.0324,0.013523,0.002678,0.000431,0.006464
4106000,0.0324,0.013523,0.002678,0.000431,0.005759
4107000,0.0324,0.013523,0.002678,0.000431,0.006111
4108000,0.0324,0.013523,0.002678,0.000431,0.006464
4109000,0.0324,0.013523,0.002678,0.000431,0.006111
4110000,0.0324,0.013523,0.002678,0.000431,0.006229
4111000,0.0324,0.013523,0.002678,0.000431,0.005876
4112000,0.0324,0.013523,0.002678,0.000431,0.006229
4113000,0.0324,0.013523,0.002678,0.000431,0.006229
4114000,0.0324,0.013523,0.002678,0.000431,0.006229
4115000,0.0324,0.013523,0.002678,0.000431,0.006111
4116000,0.0324,0.013523,0.002678,0.000431,0.006347
4117000,0.0324,0.013523,0.002678,0.000431,0.006464
4118000,0.0324,0.013523,0.002678,0.000431,0.006111
4119000,0.0324,0.013523,0.002678,0.000431,0.006464
4120000,0.0324,0.013523,0.002678,0.000431,0.005994
4121000,0.0324,0.013523,0.002678,0.000431,0.006347
4122000,0.0324,0.013523,0.002678,0.000431,0.006229
4123000,0.0324,0.013523,0.002678,0.000431,0.005759
4124000,0.0324,0.013523,0.002678,0.000431,0.006347
4125000,0.0324,0.013523,0.002678,0.000431,0.006582
4126000,0.0324,0.013523,0.002678,0.000431,0.005759
4127000,0.0324,0.013523,0.002678,0.000431,0.006582
4128000,0.0324,0.013523,0.002678,0.000431,0.006229
4129000,0.0324,0.013523,0.002678,0.000431,0.006582
4130000,0.0324,0.013523,0.002678,0.000431,0.005994
4131000,0.0324,0.013523,0.002678,0.000431,0.006582
4132000,0.0324,0.013523,0.002678,0.000431,0.006347
4133000,0.0324,0.013523,0.002678,0.000431,0.006111
4134000,0.0324,0.013523,0.002678,0.000431,0.006464
4135000,0.0324,0.013523,0.002678,0.000431,0.005994
4136000,0.0324,0.013523,0.002678,0.000431,0.006347
4137000,0.0324,0.013523,0.002678,0.000431,0.006229
4138000,0.0324,0.013523,0.002678,0.000431,0.005876
4139000,0.0324,0.013523,0.002678,0.000431,0.006582
4140000,0.0324,0.013523,0.002678,0.000431,0.005759
4141000,0.0324,0.013523,0.002678,0.000431,0.005759
4142000,0.0324,0.013523,0.002678,0.000431,0.005524
4143000,0.0324,0.013523,0.002678,0.000431,0.005289
4144000,0.0324,0.013523,0.002678,0.000431,0.005406
4145000,0.0324,0.013523,0.002678,0.000431,0.006111
4146000,0.0324,0.013523,0.002678,0.000431,0.004349
4147000,0.0324,0.013523,0.002678,0.000431,0.004936
4148000,0.0324,0.013523,0.002678,0.000431,0.004701
4149000,0.0324,0.013523,0.002678,0.000431,0.004936
4150000,0.0324,0.013523,0.002678,0.000431,0.004584
4151000,0.0324,0.013523,0.002678,0.000431,0.004819
4152000,0.0324,0.013523,0.002678,0.000431,0.004819
4153000,0.0324,0.013523,0.002678,0.000431,0.004819
4154000,0.0324,0.013523,0.002678,0.000431,0.004819
4155000,0.0324,0.013523,0.002678,0.000431,0.004936
4156000,0.0324,0.013523,0.002678,0.000431,0.004584
4157000,0.0324,0.013523,0.002678,0.000431,0.005054
4158000,0.0324,0.013523,0.002678,0.000431,0.005171
4159000,0.0324,0.013523,0.002678,0.000431,0.004936
4160000,0.0324,0.013523,0.002678,0.000431,0.004936
4161000,0.0324,0.013523,0.002678,0.000431,0.005171
4162000,0.0324,0.013523,0.002678,0.000431,0.004584
4163000,0.0324,0.013523,0.002678,0.000431,0.004701
4164000,0.0324,0.013523,0.002678,0.000431,0.004819
4165000,0.0324,0.013523,0.002678,0.000431,0.004936
4166000,0.0324,0.013523,0.002678,0.000431,0.004819
4167000,0.0324,0.013523,0.002678,0.000431,0.004701
4168000,0.0324,0.013523,0.002678,0.000431,0.004701
4169000,0.0324,0.013523,0.002678,0.000431,0.005171
4170000,0.0324,0.013523,0.002678,0.000431,0.004936
4171000,0.0324,0.013523,0.002678,0.000431,0.004584
4172000,0.0324,0.013523,0.002678,0.000431,0.004936
4173000,0.0324,0.013523,0.002678,0.000431,0.005289
4174000,0.0324,0.013523,0.002678,0.000431,0.004819
4175000,0.0324,0.013523,0.002678,0.000431,0.005289
4176000,0.0324,0.013523,0.002678,0.000431,0.004936
4177000,0.0324,0.013523,0.002678,0.000431,0.005054
4178000,0.0324,0.013523,0.002678,0.000431,0.004701
4179000,0.0324,0.013523,0.002678,0.000431,0.004701
4180000,0.0324,0.013523,0.002678,0.000431,0.005054
4181000,0.0324,0.013523,0.002678,0.000431,0.004819
4182000,0.0324,0.013523,0.002678,0.000431,0.005054
4183000,0.0324,0.013523,0.002678,0.000431,0.004936
4184000,0.0324,0.013523,0.002678,0.000431,0.004819
4185000,0.0324,0.013523,0.002678,0.000431,0.004349
4186000,0.0324,0.013523,0.002678,0.000431,0.005054
4187000,0.0324,0.013523,0.002678,0.000431,0.005289
4188000,0.0324,0.013523,0.002678,0.000431,0.004584
4189000,0.0324,0.013523,0.002678,0.000431,0.004584
4190000,0.0324,0.013523,0.002678,0.000431,0.004936
4191000,0.0324,0.013523,0.002678,0.000431,0.004819
4192000,0.0324,0.013523,0.002678,0.000431,0.004819
4193000,0.0324,0.013523,0.002678,0.000431,0.005171
4194000,0.0324,0.013523,0.002678,0.000431,0.004466
4195000,0.0324,0.013523,0.002678,0.000431,0.005054
4196000,0.0324,0.013523,0.002678,0.000431,0.005289
4197000,0.0324,0.013523,0.002678,0.000431,0.004466
4198000,0.0324,0.013523,0.002678,0.000431,0.005054
4199000,0.0324,0.013523,0.002678,0.000431,0.005054
4200000,0.0324,0.013523,0.002678,0.000431,0.004819
4201000,0.0324,0.013523,0.002678,0.000431,0.004701
4202000,0.0324,0.013523,0.002678,0.000431,0.004819
4203000,0.0324,0.013523,0.002678,0.000431,0.004936
4204000,0.0324,0.013523,0.002678,0.000431,0.004819
4205000,0.0324,0.013523,0.002678,0.000431,0.004819
4206000,0.0324,0.013523,0.002678,0.000431,0.004936
4207000,0.0324,0.013523,0.002678,0.000431,0.005054
4208000,0.0324,0.013523,0.002678,0.000431,0.004701
4209000,0.0324,0.013523,0.002678,0.000431,0.005054
4210000,0.0324,0.013523,0.002678,0.000431,0.004701
4211000,0.0324,0.013523,0.002678,0.000431,0.005054
4212000,0.0324,0.013523,0.002678,0.000431,0.004819
4213000,0.0324,0.013523,0.002678,0.000431,0.005171
4214000,0.0324,0.013523,0.002678,0.000431,0.004819
4215000,0.0324,0.013523,0.002678,0.000431,0.004819
4216000,0.0324,0.013523,0.002678,0.000431,0.004819
4217000,0.0324,0.013523,0.002678,0.000431,0.004819
4218000,0.0324,0.013523,0.002678,0.000431,0.004936
4219000,0.0324,0.013523,0.002678,0.000431,0.005289
4220000,0.0324,0.013523,0.002678,0.000431,0.004819
4221000,0.0324,0.013523,0.002678,0.000431,0.004819
4222000,0.0324,0.013523,0.002678,0.000431,0.004819
4223000,0.0324,0.013523,0.002678,0.000431,0.004936
4224000,0.0324,0.013523,0.002678,0.000431,0.004701
4225000,0.0324,0.013523,0.002678,0.000431,0.005406
4226000,0.0324,0.013523,0.002678,0.000431,0.004584
4227000,0.0324,0.013523,0.002678,0.000431,0.004349
4228000,0.0324,0.013523,0.002678,0.000431,0.004936
4229000,0.0324,0.013523,0.002678,0.000431,0.005054
4230000,0.0324,0.013523,0.002678,0.000431,0.004701
4231000,0.0324,0.013523,0.002678,0.000431,0.005054
4232000,0.0324,0.013523,0.002678,0.000431,0.004936
4233000,0.0324,0.013523,0.002678,0.000431,0.004936
4234000,0.0324,0.013523,0.002678,0.000431,0.004701
4235000,0.0324,0.013523,0.002678,0.000431,0.005171
4236000,0.0324,0.013523,0.002678,0.000431,0.004936
4237000,0.0324,0.013523,0.002678,0.000431,0.004936
4238000,0.0324,0.013523,0.002678,0.000431,0.004936
4239000,0.0324,0.013523,0.002678,0.000431,0.004936
4240000,0.0324,0.013523,0.002678,0.000431,0.005171
4241000,0.0324,0.013523,0.002678,0.000431,0.004349
4242000,0.0324,0.013523,0.002678,0.000431,0.004936
4243000,0.0324,0.013523,0.002678,0.000431,0.005054
4244000,0.0324,0.013523,0.002678,0.000431,0.005054
4245000,0.0324,0.013523,0.002678,0.000431,0.005289
4246000,0.0324,0.013523,0.002678,0.000431,0.004466
4247000,0.0324,0.013523,0.002678,0.000431,0.005171
4248000,0.0324,0.013523,0.002678,0.000431,0.004584
4249000,0.0324,0.013523,0.002678,0.000431,0.005054
4250000,0.0324,0.013523,0.002678,0.000431,0.004819
4251000,0.0324,0.013523,0.002678,0.000431,0.004936
4252000,0.0324,0.013523,0.002678,0.000431,0.004936
4253000,0.0324,0.013523,0.002678,0.000431,0.005171
4254000,0.0324,0.013523,0.002678,0.000431,0.004701
4255000,0.0324,0.013523,0.002678,0.000431,0.004819
4256000,0.0324,0.013523,0.002678,0.000431,0.004936
4257000,0.0324,0.013523,0.002678,0.000431,0.005171
4258000,0.0324,0.013523,0.002678,0.000431,0.004819
4259000,0.0324,0.013523,0.002678,0.000431,0.004936
4260000,0.0324,0.013523,0.002678,0.000431,0.004819
4261000,0.0324,0.013523,0.002678,0.000431,0.004936
4262000,0.0324,0.013523,0.002678,0.000431,0.005054
4263000,0.0324,0.013523,0.002678,0.000431,0.004819
4264000,0.0324,0.013523,0.002678,0.000431,0.005289
4265000,0.0324,0.013523,0.002678,0.000431,0.004349
4266000,0.0324,0.013523,0.002678,0.000431,0.004701
4267000,0.0324,0.013523,0.002678,0.000431,0.003996
4268000,0.0324,0.013523,0.002678,0.000431,0.003878
4269000,0.0324,0.013523,0.002678,0.000431,0.004466
4270000,0.0324,0.013523,0.002678,0.000431,0.003996
4271000,0.0324,0.013523,0.002678,0.000431,0.004349
4272000,0.0324,0.013523,0.002678,0.000431,0.004113
4273000,0.0324,0.013523,0.002678,0.000431,0.004113
4274000,0.0324,0.013523,0.002678,0.000431,0.003761
4275000,0.0324,0.013523,0.002678,0.000431,0.004349
4276000,0.0324,0.013523,0.002678,0.000431,0.004349
4277000,0.0324,0.013523,0.002678,0.000431,0.003996
4278000,0.0324,0.013523,0.002678,0.000431,0.004349
4279000,0.0324,0.013523,0.002678,0.000431,0.004231
4280000,0.0324,0.013523,0.002678,0.000431,0.004231
4281000,0.0324,0.013523,0.002678,0.000431,0.004231
4282000,0.0324,0.013523,0.002678,0.000431,0.004466
4283000,0.0324,0.013523,0.002678,0.000431,0.003996
4284000,0.0324,0.013523,0.002678,0.000431,0.004231
4285000,0.0324,0.013523,0.002678,0.000431,0.003996
4286000,0.0324,0.013523,0.002678,0.000431,0.003996
4287000,0.0324,0.013523,0.002678,0.000431,0.004113
4288000,0.0324,0.013523,0.002678,0.000431,0.004231
4289000,0.0324,0.013523,0.002678,0.000431,0.003878
4290000,0.0324,0.013523,0.002678,0.000431,0.004349
4291000,0.0324,0.013523,0.002678,0.000431,0.004349
4292000,0.0324,0.013523,0.002678,0.000431,0.004231
4293000,0.0324,0.013523,0.002678,0.000431,0.003878
4294000,0.0324,0.013523,0.002678,0.000431,0.003761
4295000,0.0324,0.013523,0.002678,0.000431,0.004466
4296000,0.0324,0.013523,0.002678,0.000431,0.003996
4297000,0.0324,0.013523,0.002678,0.000431,0.004113
4298000,0.0324,0.013523,0.002678,0.000431,0.004113
4299000,0.0324,0.013523,0.002678,0.000431,0.004584
4300000,0.0324,0.013523,0.002678,0.000431,0.003526
4301000,0.0324,0.013523,0.002678,0.000431,0.003643
4302000,0.0324,0.013523,0.002678,0.000431,0.003643
4303000,0.0324,0.013523,0.002678,0.000431,0.003643
4304000,0.0324,0.013523,0.002678,0.000431,0.003291
4305000,0.0324,0.013523,0.002678,0.000431,0.003761
4306000,0.0324,0.013523,0.002678,0.000431,0.003408
4307000,0.0324,0.013523,0.002678,0.000431,0.003173
4308000,0.0324,0.013523,0.002678,0.000431,0.003761
4309000,0.0324,0.013523,0.002678,0.000431,0.003526
4310000,0.0324,0.013523,0.002678,0.000431,0.003643
4311000,0.0324,0.013523,0.002678,0.000431,0.003408
4312000,0.0324,0.013523,0.002678,0.000431,0.003643
4313000,0.0324,0.013523,0.002678,0.000431,0.003408
4314000,0.0324,0.013523,0.002678,0.000431,0.003408
4315000,0.0324,0.013523,0.002678,0.000431,0.003408
4316000,0.0324,0.013523,0.002678,0.000431,0.003526
4317000,0.0324,0.013523,0.002678,0.000431,0.003526
4318000,0.0324,0.013523,0.002678,0.000431,0.003291
4319000,0.0324,0.013523,0.002678,0.000431,0.003643
4320000,0.0324,0.013523,0.002678,0.000431,0.003643
4321000,0.0324,0.013523,0.002678,0.000431,0.003408
4322000,0.0324,0.013523,0.002678,0.000431,0.003761
4323000,0.0324,0.013523,0.002678,0.000431,0.003526
4324000,0.0324,0.013523,0.002678,0.000431,0.003761
4325000,0.0324,0.013523,0.002678,0.000431,0.003408
4326000,0.0324,0.013523,0.002678,0.000431,0.003526
4327000,0.0324,0.013523,0.002678,0.000431,0.003526
4328000,0.0324,0.013523,0.002678,0.000431,0.003643
4329000,0.0324,0.013523,0.002678,0.000431,0.003526
4330000,0.0324,0.013523,0.002678,0.000431,0.003291
4331000,0.0324,0.013523,0.002678,0.000431,0.003643
4332000,0.0324,0.013523,0.002678,0.000431,0.003643
4333000,0.0324,0.013523,0.002678,0.000431,0.003996
4334000,0.0324,0.013523,0.002678,0.000431,0.003408
4335000,0.0324,0.013523,0.002678,0.000431,0.003291
4336000,0.0324,0.013523,0.002678,0.000431,0.003996
4337000,0.0324,0.013523,0.002678,0.000431,0.003526
4338000,0.0324,0.013523,0.002678,0.000431,0.003526
4339000,0.0324,0.013523,0.002678,0.000431,0.003643
4340000,0.0324,0.013523,0.002678,0.000431,0.003526
4341000,0.0324,0.013523,0.002678,0.000431,0.003408
4342000,0.0324,0.013523,0.002678,0.000431,0.003526
4343000,0.0324,0.013523,0.002678,0.000431,0.003526
4344000,0.0324,0.013523,0.002678,0.000431,0.003526
4345000,0.0324,0.013523,0.002678,0.000431,0.003173
4346000,0.0324,0.013523,0.002678,0.000431,0.003643
4347000,0.0324,0.013523,0.002678,0.000431,0.003173
4348000,0.0324,0.013523,0.002678,0.000431,0.003996
4349000,0.0324,0.013523,0.002678,0.000431,0.003526
4350000,0.0324,0.013523,0.002678,0.000431,0.003291
4351000,0.0324,0.013523,0.002678,0.000431,0.003526
4352000,0.0324,0.013523,0.002678,0.000431,0.003408
4353000,0.0324,0.013523,0.002678,0.000431,0.003056
4354000,0.0324,0.013523,0.002678,0.000431,0.003643
4355000,0.0324,0.013523,0.002678,0.000431,0.003526
4356000,0.0324,0.013523,0.002678,0.000431,0.003761
4357000,0.0324,0.013523,0.002678,0.000431,0.003408
4358000,0.0324,0.013523,0.002678,0.000431,0.003761
4359000,0.0324,0.013523,0.002678,0.000431,0.003643
4360000,0.0324,0.013523,0.002678,0.000431,0.003643
4361000,0.0324,0.013523,0.002678,0.000431,0.003408
4362000,0.0324,0.013523,0.002678,0.000431,0.003761
4363000,0.0324,0.013523,0.002678,0.000431,0.003643
4364000,0.0324,0.013523,0.002678,0.000431,0.003643
4365000,0.0324,0.013523,0.002678,0.000431,0.003526
4366000,0.0324,0.013523,0.002678,0.000431,0.003643
4367000,0.0324,0.013523,0.002678,0.000431,0.003291
4368000,0.0324,0.013523,0.002678,0.000431,0.003408
4369000,0.0324,0.013523,0.002678,0.000431,0.003526
4370000,0.0324,0.013523,0.002678,0.000431,0.003408
4371000,0.0324,0.013523,0.002678,0.000431,0.003643
4372000,0.0324,0.013523,0.002678,0.000431,0.003408
4373000,0.0324,0.013523,0.002678,0.000431,0.003761
4374000,0.0324,0.013523,0.002678,0.000431,0.003408
4375000,0.0324,0.013523,0.002678,0.000431,0.003408
4376000,0.0324,0.013523,0.002678,0.000431,0.003643
4377000,0.0324,0.013523,0.002678,0.000431,0.003643
4378000,0.0324,0.013523,0.002678,0.000431,0.003526
4379000,0.0324,0.013523,0.002678,0.000431,0.003761
4380000,0.0324,0.013523,0.002678,0.000431,0.003291
4381000,0.0324,0.013523,0.002678,0.000431,0.003761
4382000,0.0324,0.013523,0.002678,0.000431,0.003643
4383000,0.0324,0.013523,0.002678,0.000431,0.003643
4384000,0.0324,0.013523,0.002678,0.000431,0.003526
4385000,0.0324,0.013523,0.002678,0.000431,0.003408
4386000,0.0324,0.013523,0.002678,0.000431,0.003878
4387000,0.0324,0.013523,0.002678,0.000431,0.003643
4388000,0.0324,0.013523,0.002678,0.000431,0.003526
4389000,0.0324,0.013523,0.002678,0.000431,0.003291
