Cycle,Area(mm^2),PeakDynamic(W),SubthresholdLeakage(W),GateLeakage(W),RunTimeDynamic(W)
14000000,0.0324,0.013523,0.002678,0.000431,0.004349
14001000,0.0324,0.013523,0.002678,0.000431,0.004113
14002000,0.0324,0.013523,0.002678,0.000431,0.004113
14003000,0.0324,0.013523,0.002678,0.000431,0.004349
14004000,0.0324,0.013523,0.002678,0.000431,0.004584
14005000,0.0324,0.013523,0.002678,0.000431,0.003878
14006000,0.0324,0.013523,0.002678,0.000431,0.003996
14007000,0.0324,0.013523,0.002678,0.000431,0.003996
14008000,0.0324,0.013523,0.002678,0.000431,0.004584
14009000,0.0324,0.013523,0.002678,0.000431,0.003996
14010000,0.0324,0.013523,0.002678,0.000431,0.004584
14011000,0.0324,0.013523,0.002678,0.000431,0.003996
14012000,0.0324,0.013523,0.002678,0.000431,0.004349
14013000,0.0324,0.013523,0.002678,0.000431,0.003996
14014000,0.0324,0.013523,0.002678,0.000431,0.004584
14015000,0.0324,0.013523,0.002678,0.000431,0.004701
14016000,0.0324,0.013523,0.002678,0.000431,0.003878
14017000,0.0324,0.013523,0.002678,0.000431,0.004113
14018000,0.0324,0.013523,0.002678,0.000431,0.004584
14019000,0.0324,0.013523,0.002678,0.000431,0.004584
14020000,0.0324,0.013523,0.002678,0.000431,0.003996
14021000,0.0324,0.013523,0.002678,0.000431,0.004584
14022000,0.0324,0.013523,0.002678,0.000431,0.003996
14023000,0.0324,0.013523,0.002678,0.000431,0.004113
14024000,0.0324,0.013523,0.002678,0.000431,0.003996
14025000,0.0324,0.013523,0.002678,0.000431,0.004349
14026000,0.0324,0.013523,0.002678,0.000431,0.003761
14027000,0.0324,0.013523,0.002678,0.000431,0.004349
14028000,0.0324,0.013523,0.002678,0.000431,0.004701
14029000,0.0324,0.013523,0.002678,0.000431,0.004584
14030000,0.0324,0.013523,0.002678,0.000431,0.004349
14031000,0.0324,0.013523,0.002678,0.000431,0.004349
14032000,0.0324,0.013523,0.002678,0.000431,0.003996
14033000,0.0324,0.013523,0.002678,0.000431,0.004349
14034000,0.0324,0.013523,0.002678,0.000431,0.003761
14035000,0.0324,0.013523,0.002678,0.000431,0.005054
14036000,0.0324,0.013523,0.002678,0.000431,0.003996
14037000,0.0324,0.013523,0.002678,0.000431,0.004231
14038000,0.0324,0.013523,0.002678,0.000431,0.003996
14039000,0.0324,0.013523,0.002678,0.000431,0.004819
14040000,0.0324,0.013523,0.002678,0.000431,0.004113
14041000,0.0324,0.013523,0.002678,0.000431,0.004231
14042000,0.0324,0.013523,0.002678,0.000431,0.004349
14043000,0.0324,0.013523,0.002678,0.000431,0.004231
14044000,0.0324,0.013523,0.002678,0.000431,0.003878
14045000,0.0324,0.013523,0.002678,0.000431,0.004584
14046000,0.0324,0.013523,0.002678,0.000431,0.004466
14047000,0.0324,0.013523,0.002678,0.000431,0.003878
14048000,0.0324,0.013523,0.002678,0.000431,0.004349
14049000,0.0324,0.013523,0.002678,0.000431,0.004349
14050000,0.0324,0.013523,0.002678,0.000431,0.003996
14051000,0.0324,0.013523,0.002678,0.000431,0.004349
14052000,0.0324,0.013523,0.002678,0.000431,0.004349
14053000,0.0324,0.013523,0.002678,0.000431,0.004466
14054000,0.0324,0.013523,0.002678,0.000431,0.003526
14055000,0.0324,0.013523,0.002678,0.000431,0.004113
14056000,0.0324,0.013523,0.002678,0.000431,0.004113
14057000,0.0324,0.013523,0.002678,0.000431,0.004819
14058000,0.0324,0.013523,0.002678,0.000431,0.003996
14059000,0.0324,0.013523,0.002678,0.000431,0.004349
14060000,0.0324,0.013523,0.002678,0.000431,0.004231
14061000,0.0324,0.013523,0.002678,0.000431,0.003878
14062000,0.0324,0.013523,0.002678,0.000431,0.004584
14063000,0.0324,0.013523,0.002678,0.000431,0.004113
14064000,0.0324,0.013523,0.002678,0.000431,0.004466
14065000,0.0324,0.013523,0.002678,0.000431,0.003878
14066000,0.0324,0.013523,0.002678,0.000431,0.004584
14067000,0.0324,0.013523,0.002678,0.000431,0.004466
14068000,0.0324,0.013523,0.002678,0.000431,0.003996
14069000,0.0324,0.013523,0.002678,0.000431,0.004466
14070000,0.0324,0.013523,0.002678,0.000431,0.004701
14071000,0.0324,0.013523,0.002678,0.000431,0.003761
14072000,0.0324,0.013523,0.002678,0.000431,0.004349
14073000,0.0324,0.013523,0.002678,0.000431,0.004231
14074000,0.0324,0.013523,0.002678,0.000431,0.004349
14075000,0.0324,0.013523,0.002678,0.000431,0.004349
14076000,0.0324,0.013523,0.002678,0.000431,0.004231
14077000,0.0324,0.013523,0.002678,0.000431,0.004231
14078000,0.0324,0.013523,0.002678,0.000431,0.004113
14079000,0.0324,0.013523,0.002678,0.000431,0.004231
14080000,0.0324,0.013523,0.002678,0.000431,0.004466
14081000,0.0324,0.013523,0.002678,0.000431,0.004113
14082000,0.0324,0.013523,0.002678,0.000431,0.004231
14083000,0.0324,0.013523,0.002678,0.000431,0.004231
14084000,0.0324,0.013523,0.002678,0.000431,0.004113
14085000,0.0324,0.013523,0.002678,0.000431,0.004231
14086000,0.0324,0.013523,0.002678,0.000431,0.004349
14087000,0.0324,0.013523,0.002678,0.000431,0.004113
14088000,0.0324,0.013523,0.002678,0.000431,0.004349
14089000,0.0324,0.013523,0.002678,0.000431,0.003761
14090000,0.0324,0.013523,0.002678,0.000431,0.004936
14091000,0.0324,0.013523,0.002678,0.000431,0.003996
14092000,0.0324,0.013523,0.002678,0.000431,0.004584
14093000,0.0324,0.013523,0.002678,0.000431,0.003761
14094000,0.0324,0.013523,0.002678,0.000431,0.004349
14095000,0.0324,0.013523,0.002678,0.000431,0.003996
14096000,0.0324,0.013523,0.002678,0.000431,0.003878
14097000,0.0324,0.013523,0.002678,0.000431,0.004819
14098000,0.0324,0.013523,0.002678,0.000431,0.003996
14099000,0.0324,0.013523,0.002678,0.000431,0.004466
14100000,0.0324,0.013523,0.002678,0.000431,0.004113
14101000,0.0324,0.013523,0.002678,0.000431,0.003996
14102000,0.0324,0.013523,0.002678,0.000431,0.004349
14103000,0.0324,0.013523,0.002678,0.000431,0.004231
14104000,0.0324,0.013523,0.002678,0.000431,0.004113
14105000,0.0324,0.013523,0.002678,0.000431,0.004349
14106000,0.0324,0.013523,0.002678,0.000431,0.004231
14107000,0.0324,0.013523,0.002678,0.000431,0.004113
14108000,0.0324,0.013523,0.002678,0.000431,0.003878
14109000,0.0324,0.013523,0.002678,0.000431,0.004349
14110000,0.0324,0.013523,0.002678,0.000431,0.004349
14111000,0.0324,0.013523,0.002678,0.000431,0.004113
14112000,0.0324,0.013523,0.002678,0.000431,0.004349
14113000,0.0324,0.013523,0.002678,0.000431,0.004349
14114000,0.0324,0.013523,0.002678,0.000431,0.003761
14115000,0.0324,0.013523,0.002678,0.000431,0.004349
14116000,0.0324,0.013523,0.002678,0.000431,0.003996
14117000,0.0324,0.013523,0.002678,0.000431,0.004466
14118000,0.0324,0.013523,0.002678,0.000431,0.004113
14119000,0.0324,0.013523,0.002678,0.000431,0.004466
14120000,0.0324,0.013523,0.002678,0.000431,0.004584
14121000,0.0324,0.013523,0.002678,0.000431,0.003761
14122000,0.0324,0.013523,0.002678,0.000431,0.004349
14123000,0.0324,0.013523,0.002678,0.000431,0.004466
14124000,0.0324,0.013523,0.002678,0.000431,0.004231
14125000,0.0324,0.013523,0.002678,0.000431,0.003761
14126000,0.0324,0.013523,0.002678,0.000431,0.004349
14127000,0.0324,0.013523,0.002678,0.000431,0.003878
14128000,0.0324,0.013523,0.002678,0.000431,0.004466
14129000,0.0324,0.013523,0.002678,0.000431,0.004349
14130000,0.0324,0.013523,0.002678,0.000431,0.004349
14131000,0.0324,0.013523,0.002678,0.000431,0.004349
14132000,0.0324,0.013523,0.002678,0.000431,0.003996
14133000,0.0324,0.013523,0.002678,0.000431,0.004819
14134000,0.0324,0.013523,0.002678,0.000431,0.003996
14135000,0.0324,0.013523,0.002678,0.000431,0.004466
14136000,0.0324,0.013523,0.002678,0.000431,0.003996
14137000,0.0324,0.013523,0.002678,0.000431,0.004701
14138000,0.0324,0.013523,0.002678,0.000431,0.003996
14139000,0.0324,0.013523,0.002678,0.000431,0.004466
14140000,0.0324,0.013523,0.002678,0.000431,0.003996
14141000,0.0324,0.013523,0.002678,0.000431,0.004349
14142000,0.0324,0.013523,0.002678,0.000431,0.003878
14143000,0.0324,0.013523,0.002678,0.000431,0.004466
14144000,0.0324,0.013523,0.002678,0.000431,0.004584
14145000,0.0324,0.013523,0.002678,0.000431,0.003878
14146000,0.0324,0.013523,0.002678,0.000431,0.004349
14147000,0.0324,0.013523,0.002678,0.000431,0.004231
14148000,0.0324,0.013523,0.002678,0.000431,0.004231
14149000,0.0324,0.013523,0.002678,0.000431,0.004113
14150000,0.0324,0.013523,0.002678,0.000431,0.004113
14151000,0.0324,0.013523,0.002678,0.000431,0.004584
14152000,0.0324,0.013523,0.002678,0.000431,0.003996
14153000,0.0324,0.013523,0.002678,0.000431,0.004466
14154000,0.0324,0.013523,0.002678,0.000431,0.004349
14155000,0.0324,0.013523,0.002678,0.000431,0.004584
14156000,0.0324,0.013523,0.002678,0.000431,0.003878
14157000,0.0324,0.013523,0.002678,0.000431,0.004936
14158000,0.0324,0.013523,0.002678,0.000431,0.003996
14159000,0.0324,0.013523,0.002678,0.000431,0.004231
14160000,0.0324,0.013523,0.002678,0.000431,0.004113
14161000,0.0324,0.013523,0.002678,0.000431,0.004466
14162000,0.0324,0.013523,0.002678,0.000431,0.004231
14163000,0.0324,0.013523,0.002678,0.000431,0.004231
14164000,0.0324,0.013523,0.002678,0.000431,0.004113
14165000,0.0324,0.013523,0.002678,0.000431,0.003996
14166000,0.0324,0.013523,0.002678,0.000431,0.004349
14167000,0.0324,0.013523,0.002678,0.000431,0.004231
14168000,0.0324,0.013523,0.002678,0.000431,0.004701
14169000,0.0324,0.013523,0.002678,0.000431,0.004231
14170000,0.0324,0.013523,0.002678,0.000431,0.004349
14171000,0.0324,0.013523,0.002678,0.000431,0.004584
14172000,0.0324,0.013523,0.002678,0.000431,0.004113
14173000,0.0324,0.013523,0.002678,0.000431,0.003761
14174000,0.0324,0.013523,0.002678,0.000431,0.004584
14175000,0.0324,0.013523,0.002678,0.000431,0.004584
14176000,0.0324,0.013523,0.002678,0.000431,0.003878
14177000,0.0324,0.013523,0.002678,0.000431,0.004113
14178000,0.0324,0.013523,0.002678,0.000431,0.004349
14179000,0.0324,0.013523,0.002678,0.000431,0.004231
14180000,0.0324,0.013523,0.002678,0.000431,0.003996
14181000,0.0324,0.013523,0.002678,0.000431,0.004231
14182000,0.0324,0.013523,0.002678,0.000431,0.004466
14183000,0.0324,0.013523,0.002678,0.000431,0.004113
14184000,0.0324,0.013523,0.002678,0.000431,0.004113
14185000,0.0324,0.013523,0.002678,0.000431,0.004349
14186000,0.0324,0.013523,0.002678,0.000431,0.004584
14187000,0.0324,0.013523,0.002678,0.000431,0.003996
14188000,0.0324,0.013523,0.002678,0.000431,0.004584
14189000,0.0324,0.013523,0.002678,0.000431,0.004231
14190000,0.0324,0.013523,0.002678,0.000431,0.004349
14191000,0.0324,0.013523,0.002678,0.000431,0.004113
14192000,0.0324,0.013523,0.002678,0.000431,0.004349
14193000,0.0324,0.013523,0.002678,0.000431,0.004113
14194000,0.0324,0.013523,0.002678,0.000431,0.003761
14195000,0.0324,0.013523,0.002678,0.000431,0.004819
14196000,0.0324,0.013523,0.002678,0.000431,0.004231
14197000,0.0324,0.013523,0.002678,0.000431,0.004349
14198000,0.0324,0.013523,0.002678,0.000431,0.004584
14199000,0.0324,0.013523,0.002678,0.000431,0.004231
14200000,0.0324,0.013523,0.002678,0.000431,0.004231
14201000,0.0324,0.013523,0.002678,0.000431,0.004466
14202000,0.0324,0.013523,0.002678,0.000431,0.004466
14203000,0.0324,0.013523,0.002678,0.000431,0.004349
14204000,0.0324,0.013523,0.002678,0.000431,0.004584
14205000,0.0324,0.013523,0.002678,0.000431,0.004113
14206000,0.0324,0.013523,0.002678,0.000431,0.004349
14207000,0.0324,0.013523,0.002678,0.000431,0.003996
14208000,0.0324,0.013523,0.002678,0.000431,0.004231
14209000,0.0324,0.013523,0.002678,0.000431,0.004113
14210000,0.0324,0.013523,0.002678,0.000431,0.004231
14211000,0.0324,0.013523,0.002678,0.000431,0.004349
14212000,0.0324,0.013523,0.002678,0.000431,0.003996
14213000,0.0324,0.013523,0.002678,0.000431,0.004701
14214000,0.0324,0.013523,0.002678,0.000431,0.003996
14215000,0.0324,0.013523,0.002678,0.000431,0.004231
14216000,0.0324,0.013523,0.002678,0.000431,0.004113
14217000,0.0324,0.013523,0.002678,0.000431,0.004349
14218000,0.0324,0.013523,0.002678,0.000431,0.004349
14219000,0.0324,0.013523,0.002678,0.000431,0.004231
14220000,0.0324,0.013523,0.002678,0.000431,0.004231
14221000,0.0324,0.013523,0.002678,0.000431,0.004113
14222000,0.0324,0.013523,0.002678,0.000431,0.004113
14223000,0.0324,0.013523,0.002678,0.000431,0.004584
14224000,0.0324,0.013523,0.002678,0.000431,0.003761
14225000,0.0324,0.013523,0.002678,0.000431,0.004584
14226000,0.0324,0.013523,0.002678,0.000431,0.003996
14227000,0.0324,0.013523,0.002678,0.000431,0.004701
14228000,0.0324,0.013523,0.002678,0.000431,0.003996
14229000,0.0324,0.013523,0.002678,0.000431,0.004466
14230000,0.0324,0.013523,0.002678,0.000431,0.004231
14231000,0.0324,0.013523,0.002678,0.000431,0.004819
14232000,0.0324,0.013523,0.002678,0.000431,0.003996
14233000,0.0324,0.013523,0.002678,0.000431,0.004466
14234000,0.0324,0.013523,0.002678,0.000431,0.004231
14235000,0.0324,0.013523,0.002678,0.000431,0.004113
14236000,0.0324,0.013523,0.002678,0.000431,0.004231
14237000,0.0324,0.013523,0.002678,0.000431,0.004349
14238000,0.0324,0.013523,0.002678,0.000431,0.004349
14239000,0.0324,0.013523,0.002678,0.000431,0.004819
14240000,0.0324,0.013523,0.002678,0.000431,0.004113
14241000,0.0324,0.013523,0.002678,0.000431,0.004584
14242000,0.0324,0.013523,0.002678,0.000431,0.004349
14243000,0.0324,0.013523,0.002678,0.000431,0.003996
14244000,0.0324,0.013523,0.002678,0.000431,0.004466
14245000,0.0324,0.013523,0.002678,0.000431,0.004701
14246000,0.0324,0.013523,0.002678,0.000431,0.003996
14247000,0.0324,0.013523,0.002678,0.000431,0.003878
14248000,0.0324,0.013523,0.002678,0.000431,0.003996
14249000,0.0324,0.013523,0.002678,0.000431,0.004113
14250000,0.0324,0.013523,0.002678,0.000431,0.004466
14251000,0.0324,0.013523,0.002678,0.000431,0.004113
14252000,0.0324,0.013523,0.002678,0.000431,0.004349
14253000,0.0324,0.013523,0.002678,0.000431,0.004113
14254000,0.0324,0.013523,0.002678,0.000431,0.004349
14255000,0.0324,0.013523,0.002678,0.000431,0.004349
14256000,0.0324,0.013523,0.002678,0.000431,0.003878
14257000,0.0324,0.013523,0.002678,0.000431,0.003996
14258000,0.0324,0.013523,0.002678,0.000431,0.004701
14259000,0.0324,0.013523,0.002678,0.000431,0.004113
14260000,0.0324,0.013523,0.002678,0.000431,0.004584
14261000,0.0324,0.013523,0.002678,0.000431,0.004231
14262000,0.0324,0.013523,0.002678,0.000431,0.004466
14263000,0.0324,0.013523,0.002678,0.000431,0.003996
14264000,0.0324,0.013523,0.002678,0.000431,0.004701
14265000,0.0324,0.013523,0.002678,0.000431,0.003643
14266000,0.0324,0.013523,0.002678,0.000431,0.004466
14267000,0.0324,0.013523,0.002678,0.000431,0.003761
14268000,0.0324,0.013523,0.002678,0.000431,0.004584
14269000,0.0324,0.013523,0.002678,0.000431,0.004349
14270000,0.0324,0.013523,0.002678,0.000431,0.004113
14271000,0.0324,0.013523,0.002678,0.000431,0.004349
14272000,0.0324,0.013523,0.002678,0.000431,0.004349
14273000,0.0324,0.013523,0.002678,0.000431,0.003643
14274000,0.0324,0.013523,0.002678,0.000431,0.004466
14275000,0.0324,0.013523,0.002678,0.000431,0.004231
14276000,0.0324,0.013523,0.002678,0.000431,0.003996
14277000,0.0324,0.013523,0.002678,0.000431,0.004231
14278000,0.0324,0.013523,0.002678,0.000431,0.004584
14279000,0.0324,0.013523,0.002678,0.000431,0.003878
14280000,0.0324,0.013523,0.002678,0.000431,0.004231
14281000,0.0324,0.013523,0.002678,0.000431,0.004466
14282000,0.0324,0.013523,0.002678,0.000431,0.004113
14283000,0.0324,0.013523,0.002678,0.000431,0.004231
14284000,0.0324,0.013523,0.002678,0.000431,0.004584
14285000,0.0324,0.013523,0.002678,0.000431,0.004466
14286000,0.0324,0.013523,0.002678,0.000431,0.004113
14287000,0.0324,0.013523,0.002678,0.000431,0.004113
14288000,0.0324,0.013523,0.002678,0.000431,0.003996
14289000,0.0324,0.013523,0.002678,0.000431,0.004466
14290000,0.0324,0.013523,0.002678,0.000431,0.003878
14291000,0.0324,0.013523,0.002678,0.000431,0.004113
14292000,0.0324,0.013523,0.002678,0.000431,0.004701
14293000,0.0324,0.013523,0.002678,0.000431,0.003996
14294000,0.0324,0.013523,0.002678,0.000431,0.004349
14295000,0.0324,0.013523,0.002678,0.000431,0.004466
14296000,0.0324,0.013523,0.002678,0.000431,0.004349
14297000,0.0324,0.013523,0.002678,0.000431,0.004113
14298000,0.0324,0.013523,0.002678,0.000431,0.004349
14299000,0.0324,0.013523,0.002678,0.000431,0.004231
14300000,0.0324,0.013523,0.002678,0.000431,0.004113
14301000,0.0324,0.013523,0.002678,0.000431,0.004113
14302000,0.0324,0.013523,0.002678,0.000431,0.004584
14303000,0.0324,0.013523,0.002678,0.000431,0.004231
14304000,0.0324,0.013523,0.002678,0.000431,0.003761
14305000,0.0324,0.013523,0.002678,0.000431,0.004936
14306000,0.0324,0.013523,0.002678,0.000431,0.003996
14307000,0.0324,0.013523,0.002678,0.000431,0.004231
14308000,0.0324,0.013523,0.002678,0.000431,0.004349
14309000,0.0324,0.013523,0.002678,0.000431,0.004701
14310000,0.0324,0.013523,0.002678,0.000431,0.003761
14311000,0.0324,0.013523,0.002678,0.000431,0.004349
14312000,0.0324,0.013523,0.002678,0.000431,0.004231
14313000,0.0324,0.013523,0.002678,0.000431,0.004349
14314000,0.0324,0.013523,0.002678,0.000431,0.003878
14315000,0.0324,0.013523,0.002678,0.000431,0.004349
14316000,0.0324,0.013523,0.002678,0.000431,0.004701
14317000,0.0324,0.013523,0.002678,0.000431,0.004349
14318000,0.0324,0.013523,0.002678,0.000431,0.004466
14319000,0.0324,0.013523,0.002678,0.000431,0.003996
14320000,0.0324,0.013523,0.002678,0.000431,0.003526
14321000,0.0324,0.013523,0.002678,0.000431,0.004349
14322000,0.0324,0.013523,0.002678,0.000431,0.003761
14323000,0.0324,0.013523,0.002678,0.000431,0.003878
14324000,0.0324,0.013523,0.002678,0.000431,0.003878
14325000,0.0324,0.013523,0.002678,0.000431,0.003996
14326000,0.0324,0.013523,0.002678,0.000431,0.003643
14327000,0.0324,0.013523,0.002678,0.000431,0.004231
14328000,0.0324,0.013523,0.002678,0.000431,0.003291
14329000,0.0324,0.013523,0.002678,0.000431,0.003761
14330000,0.0324,0.013523,0.002678,0.000431,0.004231
14331000,0.0324,0.013523,0.002678,0.000431,0.003761
14332000,0.0324,0.013523,0.002678,0.000431,0.004113
14333000,0.0324,0.013523,0.002678,0.000431,0.003996
14334000,0.0324,0.013523,0.002678,0.000431,0.003761
14335000,0.0324,0.013523,0.002678,0.000431,0.003643
14336000,0.0324,0.013523,0.002678,0.000431,0.004113
14337000,0.0324,0.013523,0.002678,0.000431,0.003996
14338000,0.0324,0.013523,0.002678,0.000431,0.003996
14339000,0.0324,0.013523,0.002678,0.000431,0.003643
14340000,0.0324,0.013523,0.002678,0.000431,0.004466
14341000,0.0324,0.013523,0.002678,0.000431,0.003526
14342000,0.0324,0.013523,0.002678,0.000431,0.004231
14343000,0.0324,0.013523,0.002678,0.000431,0.003878
14344000,0.0324,0.013523,0.002678,0.000431,0.003996
14345000,0.0324,0.013523,0.002678,0.000431,0.003761
14346000,0.0324,0.013523,0.002678,0.000431,0.003996
14347000,0.0324,0.013523,0.002678,0.000431,0.004349
14348000,0.0324,0.013523,0.002678,0.000431,0.003761
14349000,0.0324,0.013523,0.002678,0.000431,0.003761
14350000,0.0324,0.013523,0.002678,0.000431,0.003996
14351000,0.0324,0.013523,0.002678,0.000431,0.003526
14352000,0.0324,0.013523,0.002678,0.000431,0.003643
14353000,0.0324,0.013523,0.002678,0.000431,0.003878
14354000,0.0324,0.013523,0.002678,0.000431,0.004349
14355000,0.0324,0.013523,0.002678,0.000431,0.003643
14356000,0.0324,0.013523,0.002678,0.000431,0.003996
14357000,0.0324,0.013523,0.002678,0.000431,0.003996
14358000,0.0324,0.013523,0.002678,0.000431,0.003996
14359000,0.0324,0.013523,0.002678,0.000431,0.003526
14360000,0.0324,0.013523,0.002678,0.000431,0.004113
14361000,0.0324,0.013523,0.002678,0.000431,0.003996
14362000,0.0324,0.013523,0.002678,0.000431,0.003878
14363000,0.0324,0.013523,0.002678,0.000431,0.003878
14364000,0.0324,0.013523,0.002678,0.000431,0.004231
14365000,0.0324,0.013523,0.002678,0.000431,0.003761
14366000,0.0324,0.013523,0.002678,0.000431,0.003761
14367000,0.0324,0.013523,0.002678,0.000431,0.004349
14368000,0.0324,0.013523,0.002678,0.000431,0.003996
14369000,0.0324,0.013523,0.002678,0.000431,0.003996
14370000,0.0324,0.013523,0.002678,0.000431,0.003761
14371000,0.0324,0.013523,0.002678,0.000431,0.003878
14372000,0.0324,0.013523,0.002678,0.000431,0.003878
14373000,0.0324,0.013523,0.002678,0.000431,0.003996
14374000,0.0324,0.013523,0.002678,0.000431,0.004113
14375000,0.0324,0.013523,0.002678,0.000431,0.003996
14376000,0.0324,0.013523,0.002678,0.000431,0.003878
14377000,0.0324,0.013523,0.002678,0.000431,0.003408
14378000,0.0324,0.013523,0.002678,0.000431,0.003878
14379000,0.0324,0.013523,0.002678,0.000431,0.003878
14380000,0.0324,0.013523,0.002678,0.000431,0.004113
14381000,0.0324,0.013523,0.002678,0.000431,0.004466
