Cycle,Area(mm^2),PeakDynamic(W),SubthresholdLeakage(W),GateLeakage(W),RunTimeDynamic(W)
3000000,0.0324,0.013523,0.002678,0.000431,0.000705
3001000,0.0324,0.013523,0.002678,0.000431,0.000588
3002000,0.0324,0.013523,0.002678,0.000431,0.000470
3003000,0.0324,0.013523,0.002678,0.000431,0.000588
3004000,0.0324,0.013523,0.002678,0.000431,0.000353
3005000,0.0324,0.013523,0.002678,0.000431,0.000470
3006000,0.0324,0.013523,0.002678,0.000431,0.000470
3007000,0.0324,0.013523,0.002678,0.000431,0.000470
3008000,0.0324,0.013523,0.002678,0.000431,0.000470
3009000,0.0324,0.013523,0.002678,0.000431,0.000353
3010000,0.0324,0.013523,0.002678,0.000431,0.000588
3011000,0.0324,0.013523,0.002678,0.000431,0.000353
3012000,0.0324,0.013523,0.002678,0.000431,0.000705
3013000,0.0324,0.013523,0.002678,0.000431,0.000470
3014000,0.0324,0.013523,0.002678,0.000431,0.000588
3015000,0.0324,0.013523,0.002678,0.000431,0.000353
3016000,0.0324,0.013523,0.002678,0.000431,0.000588
3017000,0.0324,0.013523,0.002678,0.000431,0.000353
3018000,0.0324,0.013523,0.002678,0.000431,0.000705
3019000,0.0324,0.013523,0.002678,0.000431,0.000588
3020000,0.0324,0.013523,0.002678,0.000431,0.000470
3021000,0.0324,0.013523,0.002678,0.000431,0.000705
3022000,0.0324,0.013523,0.002678,0.000431,0.000235
3023000,0.0324,0.013523,0.002678,0.000431,0.000705
3024000,0.0324,0.013523,0.002678,0.000431,0.000470
3025000,0.0324,0.013523,0.002678,0.000431,0.000588
3026000,0.0324,0.013523,0.002678,0.000431,0.000353
3027000,0.0324,0.013523,0.002678,0.000431,0.000588
3028000,0.0324,0.013523,0.002678,0.000431,0.000353
3029000,0.0324,0.013523,0.002678,0.000431,0.000588
3030000,0.0324,0.013523,0.002678,0.000431,0.000353
3031000,0.0324,0.013523,0.002678,0.000431,0.000705
3032000,0.0324,0.013523,0.002678,0.000431,0.000353
3033000,0.0324,0.013523,0.002678,0.000431,0.000705
3034000,0.0324,0.013523,0.002678,0.000431,0.000588
3035000,0.0324,0.013523,0.002678,0.000431,0.000470
3036000,0.0324,0.013523,0.002678,0.000431,0.000705
3037000,0.0324,0.013523,0.002678,0.000431,0.000235
3038000,0.0324,0.013523,0.002678,0.000431,0.000705
3039000,0.0324,0.013523,0.002678,0.000431,0.000353
3040000,0.0324,0.013523,0.002678,0.000431,0.000705
3041000,0.0324,0.013523,0.002678,0.000431,0.000588
3042000,0.0324,0.013523,0.002678,0.000431,0.000470
3043000,0.0324,0.013523,0.002678,0.000431,0.000588
3044000,0.0324,0.013523,0.002678,0.000431,0.000470
3045000,0.0324,0.013523,0.002678,0.000431,0.000470
3046000,0.0324,0.013523,0.002678,0.000431,0.000353
3047000,0.0324,0.013523,0.002678,0.000431,0.000588
3048000,0.0324,0.013523,0.002678,0.000431,0.000353
3049000,0.0324,0.013523,0.002678,0.000431,0.000705
3050000,0.0324,0.013523,0.002678,0.000431,0.000470
3051000,0.0324,0.013523,0.002678,0.000431,0.000588
3052000,0.0324,0.013523,0.002678,0.000431,0.000353
3053000,0.0324,0.013523,0.002678,0.000431,0.000470
3054000,0.0324,0.013523,0.002678,0.000431,0.000470
3055000,0.0324,0.013523,0.002678,0.000431,0.000588
3056000,0.0324,0.013523,0.002678,0.000431,0.000705
3057000,0.0324,0.013523,0.002678,0.000431,0.000353
3058000,0.0324,0.013523,0.002678,0.000431,0.000588
3059000,0.0324,0.013523,0.002678,0.000431,0.000353
3060000,0.0324,0.013523,0.002678,0.000431,0.000588
3061000,0.0324,0.013523,0.002678,0.000431,0.000353
3062000,0.0324,0.013523,0.002678,0.000431,0.000588
3063000,0.0324,0.013523,0.002678,0.000431,0.000353
3064000,0.0324,0.013523,0.002678,0.000431,0.000588
3065000,0.0324,0.013523,0.002678,0.000431,0.000470
3066000,0.0324,0.013523,0.002678,0.000431,0.000470
3067000,0.0324,0.013523,0.002678,0.000431,0.000470
3068000,0.0324,0.013523,0.002678,0.000431,0.000470
3069000,0.0324,0.013523,0.002678,0.000431,0.000470
3070000,0.0324,0.013523,0.002678,0.000431,0.000588
3071000,0.0324,0.013523,0.002678,0.000431,0.000470
3072000,0.0324,0.013523,0.002678,0.000431,0.000705
3073000,0.0324,0.013523,0.002678,0.000431,0.000353
3074000,0.0324,0.013523,0.002678,0.000431,0.000588
3075000,0.0324,0.013523,0.002678,0.000431,0.000353
3076000,0.0324,0.013523,0.002678,0.000431,0.000588
3077000,0.0324,0.013523,0.002678,0.000431,0.000353
3078000,0.0324,0.013523,0.002678,0.000431,0.000588
3079000,0.0324,0.013523,0.002678,0.000431,0.000353
3080000,0.0324,0.013523,0.002678,0.000431,0.000588
3081000,0.0324,0.013523,0.002678,0.000431,0.000353
3082000,0.0324,0.013523,0.002678,0.000431,0.000588
3083000,0.0324,0.013523,0.002678,0.000431,0.000353
3084000,0.0324,0.013523,0.002678,0.000431,0.000588
3085000,0.0324,0.013523,0.002678,0.000431,0.000353
3086000,0.0324,0.013523,0.002678,0.000431,0.000588
3087000,0.0324,0.013523,0.002678,0.000431,0.000470
3088000,0.0324,0.013523,0.002678,0.000431,0.000705
3089000,0.0324,0.013523,0.002678,0.000431,0.000353
3090000,0.0324,0.013523,0.002678,0.000431,0.000588
3091000,0.0324,0.013523,0.002678,0.000431,0.000353
3092000,0.0324,0.013523,0.002678,0.000431,0.000588
3093000,0.0324,0.013523,0.002678,0.000431,0.000353
3094000,0.0324,0.013523,0.002678,0.000431,0.000588
3095000,0.0324,0.013523,0.002678,0.000431,0.000353
3096000,0.0324,0.013523,0.002678,0.000431,0.000588
3097000,0.0324,0.013523,0.002678,0.000431,0.000353
3098000,0.0324,0.013523,0.002678,0.000431,0.000705
3099000,0.0324,0.013523,0.002678,0.000431,0.000353
3100000,0.0324,0.013523,0.002678,0.000431,0.000588
3101000,0.0324,0.013523,0.002678,0.000431,0.000353
3102000,0.0324,0.013523,0.002678,0.000431,0.000588
3103000,0.0324,0.013523,0.002678,0.000431,0.000235
3104000,0.0324,0.013523,0.002678,0.000431,0.000588
3105000,0.0324,0.013523,0.002678,0.000431,0.000353
3106000,0.0324,0.013523,0.002678,0.000431,0.000823
3107000,0.0324,0.013523,0.002678,0.000431,0.000353
3108000,0.0324,0.013523,0.002678,0.000431,0.000588
3109000,0.0324,0.013523,0.002678,0.000431,0.000353
3110000,0.0324,0.013523,0.002678,0.000431,0.000588
3111000,0.0324,0.013523,0.002678,0.000431,0.000353
3112000,0.0324,0.013523,0.002678,0.000431,0.000470
3113000,0.0324,0.013523,0.002678,0.000431,0.000470
3114000,0.0324,0.013523,0.002678,0.000431,0.000470
3115000,0.0324,0.013523,0.002678,0.000431,0.000470
3116000,0.0324,0.013523,0.002678,0.000431,0.000470
3117000,0.0324,0.013523,0.002678,0.000431,0.000588
3118000,0.0324,0.013523,0.002678,0.000431,0.000353
3119000,0.0324,0.013523,0.002678,0.000431,0.000705
3120000,0.0324,0.013523,0.002678,0.000431,0.000470
3121000,0.0324,0.013523,0.002678,0.000431,0.000470
3122000,0.0324,0.013523,0.002678,0.000431,0.000470
3123000,0.0324,0.013523,0.002678,0.000431,0.000470
3124000,0.0324,0.013523,0.002678,0.000431,0.000470
3125000,0.0324,0.013523,0.002678,0.000431,0.000470
3126000,0.0324,0.013523,0.002678,0.000431,0.000470
3127000,0.0324,0.013523,0.002678,0.000431,0.000470
3128000,0.0324,0.013523,0.002678,0.000431,0.000470
3129000,0.0324,0.013523,0.002678,0.000431,0.000588
3130000,0.0324,0.013523,0.002678,0.000431,0.000353
3131000,0.0324,0.013523,0.002678,0.000431,0.000588
3132000,0.0324,0.013523,0.002678,0.000431,0.000353
3133000,0.0324,0.013523,0.002678,0.000431,0.000588
3134000,0.0324,0.013523,0.002678,0.000431,0.000353
3135000,0.0324,0.013523,0.002678,0.000431,0.000705
3136000,0.0324,0.013523,0.002678,0.000431,0.000353
3137000,0.0324,0.013523,0.002678,0.000431,0.000588
3138000,0.0324,0.013523,0.002678,0.000431,0.000588
3139000,0.0324,0.013523,0.002678,0.000431,0.000470
3140000,0.0324,0.013523,0.002678,0.000431,0.000705
3141000,0.0324,0.013523,0.002678,0.000431,0.000353
3142000,0.0324,0.013523,0.002678,0.000431,0.000705
3143000,0.0324,0.013523,0.002678,0.000431,0.000470
3144000,0.0324,0.013523,0.002678,0.000431,0.000705
3145000,0.0324,0.013523,0.002678,0.000431,0.000588
3146000,0.0324,0.013523,0.002678,0.000431,0.000470
3147000,0.0324,0.013523,0.002678,0.000431,0.000705
3148000,0.0324,0.013523,0.002678,0.000431,0.000235
3149000,0.0324,0.013523,0.002678,0.000431,0.000705
3150000,0.0324,0.013523,0.002678,0.000431,0.000353
3151000,0.0324,0.013523,0.002678,0.000431,0.000705
3152000,0.0324,0.013523,0.002678,0.000431,0.000470
3153000,0.0324,0.013523,0.002678,0.000431,0.000470
3154000,0.0324,0.013523,0.002678,0.000431,0.000470
3155000,0.0324,0.013523,0.002678,0.000431,0.000470
3156000,0.0324,0.013523,0.002678,0.000431,0.000470
3157000,0.0324,0.013523,0.002678,0.000431,0.000588
3158000,0.0324,0.013523,0.002678,0.000431,0.000353
3159000,0.0324,0.013523,0.002678,0.000431,0.000588
3160000,0.0324,0.013523,0.002678,0.000431,0.000353
3161000,0.0324,0.013523,0.002678,0.000431,0.000705
3162000,0.0324,0.013523,0.002678,0.000431,0.000470
3163000,0.0324,0.013523,0.002678,0.000431,0.000470
3164000,0.0324,0.013523,0.002678,0.000431,0.000470
3165000,0.0324,0.013523,0.002678,0.000431,0.000470
3166000,0.0324,0.013523,0.002678,0.000431,0.000353
3167000,0.0324,0.013523,0.002678,0.000431,0.000588
3168000,0.0324,0.013523,0.002678,0.000431,0.000353
3169000,0.0324,0.013523,0.002678,0.000431,0.000705
3170000,0.0324,0.013523,0.002678,0.000431,0.000353
3171000,0.0324,0.013523,0.002678,0.000431,0.000588
3172000,0.0324,0.013523,0.002678,0.000431,0.000353
3173000,0.0324,0.013523,0.002678,0.000431,0.000588
3174000,0.0324,0.013523,0.002678,0.000431,0.000353
3175000,0.0324,0.013523,0.002678,0.000431,0.000588
3176000,0.0324,0.013523,0.002678,0.000431,0.000353
3177000,0.0324,0.013523,0.002678,0.000431,0.000588
3178000,0.0324,0.013523,0.002678,0.000431,0.000353
3179000,0.0324,0.013523,0.002678,0.000431,0.000588
3180000,0.0324,0.013523,0.002678,0.000431,0.000353
3181000,0.0324,0.013523,0.002678,0.000431,0.000588
3182000,0.0324,0.013523,0.002678,0.000431,0.000353
3183000,0.0324,0.013523,0.002678,0.000431,0.000470
3184000,0.0324,0.013523,0.002678,0.000431,0.000470
3185000,0.0324,0.013523,0.002678,0.000431,0.000470
3186000,0.0324,0.013523,0.002678,0.000431,0.000470
3187000,0.0324,0.013523,0.002678,0.000431,0.000470
3188000,0.0324,0.013523,0.002678,0.000431,0.000470
3189000,0.0324,0.013523,0.002678,0.000431,0.000470
3190000,0.0324,0.013523,0.002678,0.000431,0.000470
3191000,0.0324,0.013523,0.002678,0.000431,0.000470
3192000,0.0324,0.013523,0.002678,0.000431,0.000470
3193000,0.0324,0.013523,0.002678,0.000431,0.000470
3194000,0.0324,0.013523,0.002678,0.000431,0.000470
3195000,0.0324,0.013523,0.002678,0.000431,0.000470
3196000,0.0324,0.013523,0.002678,0.000431,0.000470
3197000,0.0324,0.013523,0.002678,0.000431,0.000470
3198000,0.0324,0.013523,0.002678,0.000431,0.000470
3199000,0.0324,0.013523,0.002678,0.000431,0.000470
3200000,0.0324,0.013523,0.002678,0.000431,0.000470
3201000,0.0324,0.013523,0.002678,0.000431,0.000470
3202000,0.0324,0.013523,0.002678,0.000431,0.000588
3203000,0.0324,0.013523,0.002678,0.000431,0.000353
3204000,0.0324,0.013523,0.002678,0.000431,0.000470
3205000,0.0324,0.013523,0.002678,0.000431,0.000353
3206000,0.0324,0.013523,0.002678,0.000431,0.000588
3207000,0.0324,0.013523,0.002678,0.000431,0.000353
3208000,0.0324,0.013523,0.002678,0.000431,0.000588
3209000,0.0324,0.013523,0.002678,0.000431,0.000470
3210000,0.0324,0.013523,0.002678,0.000431,0.000470
3211000,0.0324,0.013523,0.002678,0.000431,0.000470
3212000,0.0324,0.013523,0.002678,0.000431,0.000588
3213000,0.0324,0.013523,0.002678,0.000431,0.000470
3214000,0.0324,0.013523,0.002678,0.000431,0.000588
3215000,0.0324,0.013523,0.002678,0.000431,0.000353
3216000,0.0324,0.013523,0.002678,0.000431,0.000588
3217000,0.0324,0.013523,0.002678,0.000431,0.000353
3218000,0.0324,0.013523,0.002678,0.000431,0.000588
3219000,0.0324,0.013523,0.002678,0.000431,0.000353
3220000,0.0324,0.013523,0.002678,0.000431,0.000470
3221000,0.0324,0.013523,0.002678,0.000431,0.000470
3222000,0.0324,0.013523,0.002678,0.000431,0.000470
3223000,0.0324,0.013523,0.002678,0.000431,0.000470
3224000,0.0324,0.013523,0.002678,0.000431,0.000470
3225000,0.0324,0.013523,0.002678,0.000431,0.000470
3226000,0.0324,0.013523,0.002678,0.000431,0.000353
3227000,0.0324,0.013523,0.002678,0.000431,0.000588
3228000,0.0324,0.013523,0.002678,0.000431,0.000353
3229000,0.0324,0.013523,0.002678,0.000431,0.000588
3230000,0.0324,0.013523,0.002678,0.000431,0.000353
3231000,0.0324,0.013523,0.002678,0.000431,0.000588
3232000,0.0324,0.013523,0.002678,0.000431,0.000353
3233000,0.0324,0.013523,0.002678,0.000431,0.000705
3234000,0.0324,0.013523,0.002678,0.000431,0.000470
3235000,0.0324,0.013523,0.002678,0.000431,0.000470
3236000,0.0324,0.013523,0.002678,0.000431,0.000470
3237000,0.0324,0.013523,0.002678,0.000431,0.000470
3238000,0.0324,0.013523,0.002678,0.000431,0.000470
3239000,0.0324,0.013523,0.002678,0.000431,0.000470
3240000,0.0324,0.013523,0.002678,0.000431,0.000470
3241000,0.0324,0.013523,0.002678,0.000431,0.000470
3242000,0.0324,0.013523,0.002678,0.000431,0.000470
3243000,0.0324,0.013523,0.002678,0.000431,0.000470
3244000,0.0324,0.013523,0.002678,0.000431,0.000470
3245000,0.0324,0.013523,0.002678,0.000431,0.000470
3246000,0.0324,0.013523,0.002678,0.000431,0.000353
3247000,0.0324,0.013523,0.002678,0.000431,0.000705
3248000,0.0324,0.013523,0.002678,0.000431,0.000353
3249000,0.0324,0.013523,0.002678,0.000431,0.000705
3250000,0.0324,0.013523,0.002678,0.000431,0.000588
3251000,0.0324,0.013523,0.002678,0.000431,0.000470
3252000,0.0324,0.013523,0.002678,0.000431,0.000588
3253000,0.0324,0.013523,0.002678,0.000431,0.000353
3254000,0.0324,0.013523,0.002678,0.000431,0.000588
3255000,0.0324,0.013523,0.002678,0.000431,0.000353
3256000,0.0324,0.013523,0.002678,0.000431,0.000588
3257000,0.0324,0.013523,0.002678,0.000431,0.000353
3258000,0.0324,0.013523,0.002678,0.000431,0.000588
3259000,0.0324,0.013523,0.002678,0.000431,0.000353
3260000,0.0324,0.013523,0.002678,0.000431,0.000588
3261000,0.0324,0.013523,0.002678,0.000431,0.000353
3262000,0.0324,0.013523,0.002678,0.000431,0.000588
3263000,0.0324,0.013523,0.002678,0.000431,0.000353
3264000,0.0324,0.013523,0.002678,0.000431,0.000470
3265000,0.0324,0.013523,0.002678,0.000431,0.000470
3266000,0.0324,0.013523,0.002678,0.000431,0.000470
3267000,0.0324,0.013523,0.002678,0.000431,0.000470
3268000,0.0324,0.013523,0.002678,0.000431,0.000353
3269000,0.0324,0.013523,0.002678,0.000431,0.000705
3270000,0.0324,0.013523,0.002678,0.000431,0.000588
3271000,0.0324,0.013523,0.002678,0.000431,0.000470
3272000,0.0324,0.013523,0.002678,0.000431,0.000705
3273000,0.0324,0.013523,0.002678,0.000431,0.000353
3274000,0.0324,0.013523,0.002678,0.000431,0.000705
3275000,0.0324,0.013523,0.002678,0.000431,0.000470
3276000,0.0324,0.013523,0.002678,0.000431,0.000470
3277000,0.0324,0.013523,0.002678,0.000431,0.000470
3278000,0.0324,0.013523,0.002678,0.000431,0.000470
3279000,0.0324,0.013523,0.002678,0.000431,0.000470
3280000,0.0324,0.013523,0.002678,0.000431,0.000470
3281000,0.0324,0.013523,0.002678,0.000431,0.000470
3282000,0.0324,0.013523,0.002678,0.000431,0.000470
3283000,0.0324,0.013523,0.002678,0.000431,0.000470
3284000,0.0324,0.013523,0.002678,0.000431,0.000470
3285000,0.0324,0.013523,0.002678,0.000431,0.000353
3286000,0.0324,0.013523,0.002678,0.000431,0.000588
3287000,0.0324,0.013523,0.002678,0.000431,0.000353
3288000,0.0324,0.013523,0.002678,0.000431,0.000588
3289000,0.0324,0.013523,0.002678,0.000431,0.000353
3290000,0.0324,0.013523,0.002678,0.000431,0.000705
3291000,0.0324,0.013523,0.002678,0.000431,0.000353
3292000,0.0324,0.013523,0.002678,0.000431,0.000705
3293000,0.0324,0.013523,0.002678,0.000431,0.000470
3294000,0.0324,0.013523,0.002678,0.000431,0.000470
3295000,0.0324,0.013523,0.002678,0.000431,0.000470
3296000,0.0324,0.013523,0.002678,0.000431,0.000470
3297000,0.0324,0.013523,0.002678,0.000431,0.000470
3298000,0.0324,0.013523,0.002678,0.000431,0.000588
3299000,0.0324,0.013523,0.002678,0.000431,0.000353
3300000,0.0324,0.013523,0.002678,0.000431,0.000470
3301000,0.0324,0.013523,0.002678,0.000431,0.000470
3302000,0.0324,0.013523,0.002678,0.000431,0.000588
3303000,0.0324,0.013523,0.002678,0.000431,0.000353
3304000,0.0324,0.013523,0.002678,0.000431,0.000470
3305000,0.0324,0.013523,0.002678,0.000431,0.000353
3306000,0.0324,0.013523,0.002678,0.000431,0.000588
3307000,0.0324,0.013523,0.002678,0.000431,0.000470
3308000,0.0324,0.013523,0.002678,0.000431,0.000470
3309000,0.0324,0.013523,0.002678,0.000431,0.000470
3310000,0.0324,0.013523,0.002678,0.000431,0.000470
3311000,0.0324,0.013523,0.002678,0.000431,0.000470
3312000,0.0324,0.013523,0.002678,0.000431,0.000470
3313000,0.0324,0.013523,0.002678,0.000431,0.000470
3314000,0.0324,0.013523,0.002678,0.000431,0.000470
3315000,0.0324,0.013523,0.002678,0.000431,0.000470
3316000,0.0324,0.013523,0.002678,0.000431,0.000588
3317000,0.0324,0.013523,0.002678,0.000431,0.000470
3318000,0.0324,0.013523,0.002678,0.000431,0.000588
3319000,0.0324,0.013523,0.002678,0.000431,0.000353
3320000,0.0324,0.013523,0.002678,0.000431,0.000588
3321000,0.0324,0.013523,0.002678,0.000431,0.000353
3322000,0.0324,0.013523,0.002678,0.000431,0.000470
3323000,0.0324,0.013523,0.002678,0.000431,0.000470
3324000,0.0324,0.013523,0.002678,0.000431,0.000353
3325000,0.0324,0.013523,0.002678,0.000431,0.000470
3326000,0.0324,0.013523,0.002678,0.000431,0.000470
3327000,0.0324,0.013523,0.002678,0.000431,0.000470
3328000,0.0324,0.013523,0.002678,0.000431,0.000470
3329000,0.0324,0.013523,0.002678,0.000431,0.000470
3330000,0.0324,0.013523,0.002678,0.000431,0.000470
3331000,0.0324,0.013523,0.002678,0.000431,0.000470
3332000,0.0324,0.013523,0.002678,0.000431,0.000470
3333000,0.0324,0.013523,0.002678,0.000431,0.000588
3334000,0.0324,0.013523,0.002678,0.000431,0.000353
3335000,0.0324,0.013523,0.002678,0.000431,0.000705
3336000,0.0324,0.013523,0.002678,0.000431,0.000588
3337000,0.0324,0.013523,0.002678,0.000431,0.000353
3338000,0.0324,0.013523,0.002678,0.000431,0.000588
3339000,0.0324,0.013523,0.002678,0.000431,0.000470
3340000,0.0324,0.013523,0.002678,0.000431,0.000353
3341000,0.0324,0.013523,0.002678,0.000431,0.000588
3342000,0.0324,0.013523,0.002678,0.000431,0.000353
3343000,0.0324,0.013523,0.002678,0.000431,0.000588
3344000,0.0324,0.013523,0.002678,0.000431,0.000353
3345000,0.0324,0.013523,0.002678,0.000431,0.000588
3346000,0.0324,0.013523,0.002678,0.000431,0.000353
3347000,0.0324,0.013523,0.002678,0.000431,0.000588
3348000,0.0324,0.013523,0.002678,0.000431,0.000353
3349000,0.0324,0.013523,0.002678,0.000431,0.000470
3350000,0.0324,0.013523,0.002678,0.000431,0.000470
3351000,0.0324,0.013523,0.002678,0.000431,0.000588
3352000,0.0324,0.013523,0.002678,0.000431,0.000353
3353000,0.0324,0.013523,0.002678,0.000431,0.000705
3354000,0.0324,0.013523,0.002678,0.000431,0.000588
3355000,0.0324,0.013523,0.002678,0.000431,0.000353
3356000,0.0324,0.013523,0.002678,0.000431,0.000588
3357000,0.0324,0.013523,0.002678,0.000431,0.000588
3358000,0.0324,0.013523,0.002678,0.000431,0.000470
3359000,0.0324,0.013523,0.002678,0.000431,0.000470
3360000,0.0324,0.013523,0.002678,0.000431,0.000470
3361000,0.0324,0.013523,0.002678,0.000431,0.000470
3362000,0.0324,0.013523,0.002678,0.000431,0.000470
3363000,0.0324,0.013523,0.002678,0.000431,0.000470
3364000,0.0324,0.013523,0.002678,0.000431,0.000470
3365000,0.0324,0.013523,0.002678,0.000431,0.000588
3366000,0.0324,0.013523,0.002678,0.000431,0.000353
3367000,0.0324,0.013523,0.002678,0.000431,0.000705
3368000,0.0324,0.013523,0.002678,0.000431,0.000588
3369000,0.0324,0.013523,0.002678,0.000431,0.000470
3370000,0.0324,0.013523,0.002678,0.000431,0.000588
3371000,0.0324,0.013523,0.002678,0.000431,0.000353
3372000,0.0324,0.013523,0.002678,0.000431,0.000588
3373000,0.0324,0.013523,0.002678,0.000431,0.000353
3374000,0.0324,0.013523,0.002678,0.000431,0.000470
3375000,0.0324,0.013523,0.002678,0.000431,0.000470
3376000,0.0324,0.013523,0.002678,0.000431,0.000470
3377000,0.0324,0.013523,0.002678,0.000431,0.000588
3378000,0.0324,0.013523,0.002678,0.000431,0.000470
3379000,0.0324,0.013523,0.002678,0.000431,0.000470
3380000,0.0324,0.013523,0.002678,0.000431,0.000470
3381000,0.0324,0.013523,0.002678,0.000431,0.000588
3382000,0.0324,0.013523,0.002678,0.000431,0.000353
3383000,0.0324,0.013523,0.002678,0.000431,0.000588
3384000,0.0324,0.013523,0.002678,0.000431,0.000353
3385000,0.0324,0.013523,0.002678,0.000431,0.000470
3386000,0.0324,0.013523,0.002678,0.000431,0.000470
3387000,0.0324,0.013523,0.002678,0.000431,0.000470
3388000,0.0324,0.013523,0.002678,0.000431,0.000470
3389000,0.0324,0.013523,0.002678,0.000431,0.000470
