Cycle,Area(mm^2),PeakDynamic(W),SubthresholdLeakage(W),GateLeakage(W),RunTimeDynamic(W)
9000000,0.0324,0.013523,0.002678,0.000431,0.000353
9001000,0.0324,0.013523,0.002678,0.000431,0.000823
9002000,0.0324,0.013523,0.002678,0.000431,0.000235
9003000,0.0324,0.013523,0.002678,0.000431,0.000823
9004000,0.0324,0.013523,0.002678,0.000431,0.000353
9005000,0.0324,0.013523,0.002678,0.000431,0.000588
9006000,0.0324,0.013523,0.002678,0.000431,0.000353
9007000,0.0324,0.013523,0.002678,0.000431,0.000705
9008000,0.0324,0.013523,0.002678,0.000431,0.000353
9009000,0.0324,0.013523,0.002678,0.000431,0.000705
9010000,0.0324,0.013523,0.002678,0.000431,0.000470
9011000,0.0324,0.013523,0.002678,0.000431,0.000470
9012000,0.0324,0.013523,0.002678,0.000431,0.000470
9013000,0.0324,0.013523,0.002678,0.000431,0.000470
9014000,0.0324,0.013523,0.002678,0.000431,0.000470
9015000,0.0324,0.013523,0.002678,0.000431,0.000470
9016000,0.0324,0.013523,0.002678,0.000431,0.000470
9017000,0.0324,0.013523,0.002678,0.000431,0.000470
9018000,0.0324,0.013523,0.002678,0.000431,0.000353
9019000,0.0324,0.013523,0.002678,0.000431,0.000588
9020000,0.0324,0.013523,0.002678,0.000431,0.000353
9021000,0.0324,0.013523,0.002678,0.000431,0.000588
9022000,0.0324,0.013523,0.002678,0.000431,0.000353
9023000,0.0324,0.013523,0.002678,0.000431,0.000588
9024000,0.0324,0.013523,0.002678,0.000431,0.000353
9025000,0.0324,0.013523,0.002678,0.000431,0.000588
9026000,0.0324,0.013523,0.002678,0.000431,0.000353
9027000,0.0324,0.013523,0.002678,0.000431,0.000705
9028000,0.0324,0.013523,0.002678,0.000431,0.000353
9029000,0.0324,0.013523,0.002678,0.000431,0.000588
9030000,0.0324,0.013523,0.002678,0.000431,0.000353
9031000,0.0324,0.013523,0.002678,0.000431,0.000588
9032000,0.0324,0.013523,0.002678,0.000431,0.000353
9033000,0.0324,0.013523,0.002678,0.000431,0.000470
9034000,0.0324,0.013523,0.002678,0.000431,0.000470
9035000,0.0324,0.013523,0.002678,0.000431,0.000588
9036000,0.0324,0.013523,0.002678,0.000431,0.000470
9037000,0.0324,0.013523,0.002678,0.000431,0.000705
9038000,0.0324,0.013523,0.002678,0.000431,0.000353
9039000,0.0324,0.013523,0.002678,0.000431,0.000588
9040000,0.0324,0.013523,0.002678,0.000431,0.000353
9041000,0.0324,0.013523,0.002678,0.000431,0.000588
9042000,0.0324,0.013523,0.002678,0.000431,0.000353
9043000,0.0324,0.013523,0.002678,0.000431,0.000705
9044000,0.0324,0.013523,0.002678,0.000431,0.000470
9045000,0.0324,0.013523,0.002678,0.000431,0.000470
9046000,0.0324,0.013523,0.002678,0.000431,0.000470
9047000,0.0324,0.013523,0.002678,0.000431,0.000470
9048000,0.0324,0.013523,0.002678,0.000431,0.000470
9049000,0.0324,0.013523,0.002678,0.000431,0.000470
9050000,0.0324,0.013523,0.002678,0.000431,0.000353
9051000,0.0324,0.013523,0.002678,0.000431,0.000470
9052000,0.0324,0.013523,0.002678,0.000431,0.000470
9053000,0.0324,0.013523,0.002678,0.000431,0.000588
9054000,0.0324,0.013523,0.002678,0.000431,0.000353
9055000,0.0324,0.013523,0.002678,0.000431,0.000588
9056000,0.0324,0.013523,0.002678,0.000431,0.000353
9057000,0.0324,0.013523,0.002678,0.000431,0.000588
9058000,0.0324,0.013523,0.002678,0.000431,0.000353
9059000,0.0324,0.013523,0.002678,0.000431,0.000588
9060000,0.0324,0.013523,0.002678,0.000431,0.000353
9061000,0.0324,0.013523,0.002678,0.000431,0.000588
9062000,0.0324,0.013523,0.002678,0.000431,0.000353
9063000,0.0324,0.013523,0.002678,0.000431,0.000588
9064000,0.0324,0.013523,0.002678,0.000431,0.000353
9065000,0.0324,0.013523,0.002678,0.000431,0.000588
9066000,0.0324,0.013523,0.002678,0.000431,0.000470
9067000,0.0324,0.013523,0.002678,0.000431,0.000470
9068000,0.0324,0.013523,0.002678,0.000431,0.000470
9069000,0.0324,0.013523,0.002678,0.000431,0.000470
9070000,0.0324,0.013523,0.002678,0.000431,0.000470
9071000,0.0324,0.013523,0.002678,0.000431,0.000470
9072000,0.0324,0.013523,0.002678,0.000431,0.000470
9073000,0.0324,0.013523,0.002678,0.000431,0.000470
9074000,0.0324,0.013523,0.002678,0.000431,0.000470
9075000,0.0324,0.013523,0.002678,0.000431,0.000470
9076000,0.0324,0.013523,0.002678,0.000431,0.000470
9077000,0.0324,0.013523,0.002678,0.000431,0.000353
9078000,0.0324,0.013523,0.002678,0.000431,0.000588
9079000,0.0324,0.013523,0.002678,0.000431,0.000353
9080000,0.0324,0.013523,0.002678,0.000431,0.000588
9081000,0.0324,0.013523,0.002678,0.000431,0.000353
9082000,0.0324,0.013523,0.002678,0.000431,0.000705
9083000,0.0324,0.013523,0.002678,0.000431,0.000353
9084000,0.0324,0.013523,0.002678,0.000431,0.000588
9085000,0.0324,0.013523,0.002678,0.000431,0.000353
9086000,0.0324,0.013523,0.002678,0.000431,0.000588
9087000,0.0324,0.013523,0.002678,0.000431,0.000353
9088000,0.0324,0.013523,0.002678,0.000431,0.000588
9089000,0.0324,0.013523,0.002678,0.000431,0.000353
9090000,0.0324,0.013523,0.002678,0.000431,0.000588
9091000,0.0324,0.013523,0.002678,0.000431,0.000353
9092000,0.0324,0.013523,0.002678,0.000431,0.000588
9093000,0.0324,0.013523,0.002678,0.000431,0.000353
9094000,0.0324,0.013523,0.002678,0.000431,0.000588
9095000,0.0324,0.013523,0.002678,0.000431,0.000353
9096000,0.0324,0.013523,0.002678,0.000431,0.000588
9097000,0.0324,0.013523,0.002678,0.000431,0.000353
9098000,0.0324,0.013523,0.002678,0.000431,0.000588
9099000,0.0324,0.013523,0.002678,0.000431,0.000353
9100000,0.0324,0.013523,0.002678,0.000431,0.000470
9101000,0.0324,0.013523,0.002678,0.000431,0.000470
9102000,0.0324,0.013523,0.002678,0.000431,0.000470
9103000,0.0324,0.013523,0.002678,0.000431,0.000470
9104000,0.0324,0.013523,0.002678,0.000431,0.000470
9105000,0.0324,0.013523,0.002678,0.000431,0.000470
9106000,0.0324,0.013523,0.002678,0.000431,0.000470
9107000,0.0324,0.013523,0.002678,0.000431,0.000470
9108000,0.0324,0.013523,0.002678,0.000431,0.000470
9109000,0.0324,0.013523,0.002678,0.000431,0.000470
9110000,0.0324,0.013523,0.002678,0.000431,0.000470
9111000,0.0324,0.013523,0.002678,0.000431,0.000470
9112000,0.0324,0.013523,0.002678,0.000431,0.000588
9113000,0.0324,0.013523,0.002678,0.000431,0.000470
9114000,0.0324,0.013523,0.002678,0.000431,0.000705
9115000,0.0324,0.013523,0.002678,0.000431,0.000353
9116000,0.0324,0.013523,0.002678,0.000431,0.000705
9117000,0.0324,0.013523,0.002678,0.000431,0.000470
9118000,0.0324,0.013523,0.002678,0.000431,0.000470
9119000,0.0324,0.013523,0.002678,0.000431,0.000470
9120000,0.0324,0.013523,0.002678,0.000431,0.000470
9121000,0.0324,0.013523,0.002678,0.000431,0.000353
9122000,0.0324,0.013523,0.002678,0.000431,0.000588
9123000,0.0324,0.013523,0.002678,0.000431,0.000353
9124000,0.0324,0.013523,0.002678,0.000431,0.000588
9125000,0.0324,0.013523,0.002678,0.000431,0.000353
9126000,0.0324,0.013523,0.002678,0.000431,0.000705
9127000,0.0324,0.013523,0.002678,0.000431,0.000353
9128000,0.0324,0.013523,0.002678,0.000431,0.000705
9129000,0.0324,0.013523,0.002678,0.000431,0.000588
9130000,0.0324,0.013523,0.002678,0.000431,0.000470
9131000,0.0324,0.013523,0.002678,0.000431,0.000588
9132000,0.0324,0.013523,0.002678,0.000431,0.000353
9133000,0.0324,0.013523,0.002678,0.000431,0.000470
9134000,0.0324,0.013523,0.002678,0.000431,0.000470
9135000,0.0324,0.013523,0.002678,0.000431,0.000470
9136000,0.0324,0.013523,0.002678,0.000431,0.000470
9137000,0.0324,0.013523,0.002678,0.000431,0.000353
9138000,0.0324,0.013523,0.002678,0.000431,0.000588
9139000,0.0324,0.013523,0.002678,0.000431,0.000353
9140000,0.0324,0.013523,0.002678,0.000431,0.000705
9141000,0.0324,0.013523,0.002678,0.000431,0.000588
9142000,0.0324,0.013523,0.002678,0.000431,0.000470
9143000,0.0324,0.013523,0.002678,0.000431,0.000588
9144000,0.0324,0.013523,0.002678,0.000431,0.000353
9145000,0.0324,0.013523,0.002678,0.000431,0.000470
9146000,0.0324,0.013523,0.002678,0.000431,0.000470
9147000,0.0324,0.013523,0.002678,0.000431,0.000705
9148000,0.0324,0.013523,0.002678,0.000431,0.000353
9149000,0.0324,0.013523,0.002678,0.000431,0.000588
9150000,0.0324,0.013523,0.002678,0.000431,0.000353
9151000,0.0324,0.013523,0.002678,0.000431,0.000470
9152000,0.0324,0.013523,0.002678,0.000431,0.000470
9153000,0.0324,0.013523,0.002678,0.000431,0.000470
9154000,0.0324,0.013523,0.002678,0.000431,0.000470
9155000,0.0324,0.013523,0.002678,0.000431,0.000470
9156000,0.0324,0.013523,0.002678,0.000431,0.000470
9157000,0.0324,0.013523,0.002678,0.000431,0.000470
9158000,0.0324,0.013523,0.002678,0.000431,0.000470
9159000,0.0324,0.013523,0.002678,0.000431,0.000588
9160000,0.0324,0.013523,0.002678,0.000431,0.000470
9161000,0.0324,0.013523,0.002678,0.000431,0.000705
9162000,0.0324,0.013523,0.002678,0.000431,0.000353
9163000,0.0324,0.013523,0.002678,0.000431,0.000588
9164000,0.0324,0.013523,0.002678,0.000431,0.000353
9165000,0.0324,0.013523,0.002678,0.000431,0.000588
9166000,0.0324,0.013523,0.002678,0.000431,0.000353
9167000,0.0324,0.013523,0.002678,0.000431,0.000470
9168000,0.0324,0.013523,0.002678,0.000431,0.000470
9169000,0.0324,0.013523,0.002678,0.000431,0.000588
9170000,0.0324,0.013523,0.002678,0.000431,0.000588
9171000,0.0324,0.013523,0.002678,0.000431,0.000470
9172000,0.0324,0.013523,0.002678,0.000431,0.000470
9173000,0.0324,0.013523,0.002678,0.000431,0.000470
9174000,0.0324,0.013523,0.002678,0.000431,0.000353
9175000,0.0324,0.013523,0.002678,0.000431,0.000588
9176000,0.0324,0.013523,0.002678,0.000431,0.000353
9177000,0.0324,0.013523,0.002678,0.000431,0.000588
9178000,0.0324,0.013523,0.002678,0.000431,0.000353
9179000,0.0324,0.013523,0.002678,0.000431,0.000588
9180000,0.0324,0.013523,0.002678,0.000431,0.000353
9181000,0.0324,0.013523,0.002678,0.000431,0.000588
9182000,0.0324,0.013523,0.002678,0.000431,0.000705
9183000,0.0324,0.013523,0.002678,0.000431,0.000353
9184000,0.0324,0.013523,0.002678,0.000431,0.000588
9185000,0.0324,0.013523,0.002678,0.000431,0.000588
9186000,0.0324,0.013523,0.002678,0.000431,0.000470
9187000,0.0324,0.013523,0.002678,0.000431,0.000588
9188000,0.0324,0.013523,0.002678,0.000431,0.000353
9189000,0.0324,0.013523,0.002678,0.000431,0.000588
9190000,0.0324,0.013523,0.002678,0.000431,0.000353
9191000,0.0324,0.013523,0.002678,0.000431,0.000588
9192000,0.0324,0.013523,0.002678,0.000431,0.000470
9193000,0.0324,0.013523,0.002678,0.000431,0.000470
9194000,0.0324,0.013523,0.002678,0.000431,0.000353
9195000,0.0324,0.013523,0.002678,0.000431,0.000705
9196000,0.0324,0.013523,0.002678,0.000431,0.000470
9197000,0.0324,0.013523,0.002678,0.000431,0.000705
9198000,0.0324,0.013523,0.002678,0.000431,0.000235
9199000,0.0324,0.013523,0.002678,0.000431,0.000705
9200000,0.0324,0.013523,0.002678,0.000431,0.000353
9201000,0.0324,0.013523,0.002678,0.000431,0.000705
9202000,0.0324,0.013523,0.002678,0.000431,0.000470
9203000,0.0324,0.013523,0.002678,0.000431,0.000470
9204000,0.0324,0.013523,0.002678,0.000431,0.000470
9205000,0.0324,0.013523,0.002678,0.000431,0.000470
9206000,0.0324,0.013523,0.002678,0.000431,0.000470
9207000,0.0324,0.013523,0.002678,0.000431,0.000470
9208000,0.0324,0.013523,0.002678,0.000431,0.000470
9209000,0.0324,0.013523,0.002678,0.000431,0.000588
9210000,0.0324,0.013523,0.002678,0.000431,0.000353
9211000,0.0324,0.013523,0.002678,0.000431,0.000588
9212000,0.0324,0.013523,0.002678,0.000431,0.000353
9213000,0.0324,0.013523,0.002678,0.000431,0.000470
9214000,0.0324,0.013523,0.002678,0.000431,0.000353
9215000,0.0324,0.013523,0.002678,0.000431,0.000588
9216000,0.0324,0.013523,0.002678,0.000431,0.000353
9217000,0.0324,0.013523,0.002678,0.000431,0.000705
9218000,0.0324,0.013523,0.002678,0.000431,0.000353
9219000,0.0324,0.013523,0.002678,0.000431,0.000705
9220000,0.0324,0.013523,0.002678,0.000431,0.000588
9221000,0.0324,0.013523,0.002678,0.000431,0.000470
9222000,0.0324,0.013523,0.002678,0.000431,0.000588
9223000,0.0324,0.013523,0.002678,0.000431,0.000353
9224000,0.0324,0.013523,0.002678,0.000431,0.000588
9225000,0.0324,0.013523,0.002678,0.000431,0.000353
9226000,0.0324,0.013523,0.002678,0.000431,0.000588
9227000,0.0324,0.013523,0.002678,0.000431,0.000353
9228000,0.0324,0.013523,0.002678,0.000431,0.000470
9229000,0.0324,0.013523,0.002678,0.000431,0.000470
9230000,0.0324,0.013523,0.002678,0.000431,0.000705
9231000,0.0324,0.013523,0.002678,0.000431,0.000470
9232000,0.0324,0.013523,0.002678,0.000431,0.000823
9233000,0.0324,0.013523,0.002678,0.000431,0.000353
9234000,0.0324,0.013523,0.002678,0.000431,0.000588
9235000,0.0324,0.013523,0.002678,0.000431,0.000353
9236000,0.0324,0.013523,0.002678,0.000431,0.000588
9237000,0.0324,0.013523,0.002678,0.000431,0.000353
9238000,0.0324,0.013523,0.002678,0.000431,0.000588
9239000,0.0324,0.013523,0.002678,0.000431,0.000353
9240000,0.0324,0.013523,0.002678,0.000431,0.000588
9241000,0.0324,0.013523,0.002678,0.000431,0.000353
9242000,0.0324,0.013523,0.002678,0.000431,0.000588
9243000,0.0324,0.013523,0.002678,0.000431,0.000353
9244000,0.0324,0.013523,0.002678,0.000431,0.000705
9245000,0.0324,0.013523,0.002678,0.000431,0.000353
9246000,0.0324,0.013523,0.002678,0.000431,0.000588
9247000,0.0324,0.013523,0.002678,0.000431,0.000470
9248000,0.0324,0.013523,0.002678,0.000431,0.000588
9249000,0.0324,0.013523,0.002678,0.000431,0.000588
9250000,0.0324,0.013523,0.002678,0.000431,0.000470
9251000,0.0324,0.013523,0.002678,0.000431,0.000705
9252000,0.0324,0.013523,0.002678,0.000431,0.000353
9253000,0.0324,0.013523,0.002678,0.000431,0.000588
9254000,0.0324,0.013523,0.002678,0.000431,0.000353
9255000,0.0324,0.013523,0.002678,0.000431,0.000705
9256000,0.0324,0.013523,0.002678,0.000431,0.000353
9257000,0.0324,0.013523,0.002678,0.000431,0.000705
9258000,0.0324,0.013523,0.002678,0.000431,0.000353
9259000,0.0324,0.013523,0.002678,0.000431,0.000588
9260000,0.0324,0.013523,0.002678,0.000431,0.000353
9261000,0.0324,0.013523,0.002678,0.000431,0.000588
9262000,0.0324,0.013523,0.002678,0.000431,0.000353
9263000,0.0324,0.013523,0.002678,0.000431,0.000823
9264000,0.0324,0.013523,0.002678,0.000431,0.000235
9265000,0.0324,0.013523,0.002678,0.000431,0.000705
9266000,0.0324,0.013523,0.002678,0.000431,0.000470
9267000,0.0324,0.013523,0.002678,0.000431,0.000588
9268000,0.0324,0.013523,0.002678,0.000431,0.000353
9269000,0.0324,0.013523,0.002678,0.000431,0.000588
9270000,0.0324,0.013523,0.002678,0.000431,0.000353
9271000,0.0324,0.013523,0.002678,0.000431,0.000588
9272000,0.0324,0.013523,0.002678,0.000431,0.000353
9273000,0.0324,0.013523,0.002678,0.000431,0.000705
9274000,0.0324,0.013523,0.002678,0.000431,0.000353
9275000,0.0324,0.013523,0.002678,0.000431,0.000588
9276000,0.0324,0.013523,0.002678,0.000431,0.000353
9277000,0.0324,0.013523,0.002678,0.000431,0.000705
9278000,0.0324,0.013523,0.002678,0.000431,0.000588
9279000,0.0324,0.013523,0.002678,0.000431,0.000353
9280000,0.0324,0.013523,0.002678,0.000431,0.000588
9281000,0.0324,0.013523,0.002678,0.000431,0.000470
9282000,0.0324,0.013523,0.002678,0.000431,0.000705
9283000,0.0324,0.013523,0.002678,0.000431,0.000470
9284000,0.0324,0.013523,0.002678,0.000431,0.000588
9285000,0.0324,0.013523,0.002678,0.000431,0.000235
9286000,0.0324,0.013523,0.002678,0.000431,0.000588
9287000,0.0324,0.013523,0.002678,0.000431,0.000353
9288000,0.0324,0.013523,0.002678,0.000431,0.000588
9289000,0.0324,0.013523,0.002678,0.000431,0.000353
9290000,0.0324,0.013523,0.002678,0.000431,0.000588
9291000,0.0324,0.013523,0.002678,0.000431,0.000353
9292000,0.0324,0.013523,0.002678,0.000431,0.000588
9293000,0.0324,0.013523,0.002678,0.000431,0.000353
9294000,0.0324,0.013523,0.002678,0.000431,0.000470
9295000,0.0324,0.013523,0.002678,0.000431,0.000470
9296000,0.0324,0.013523,0.002678,0.000431,0.000470
9297000,0.0324,0.013523,0.002678,0.000431,0.000470
9298000,0.0324,0.013523,0.002678,0.000431,0.000588
9299000,0.0324,0.013523,0.002678,0.000431,0.000470
9300000,0.0324,0.013523,0.002678,0.000431,0.000588
9301000,0.0324,0.013523,0.002678,0.000431,0.000353
9302000,0.0324,0.013523,0.002678,0.000431,0.000588
9303000,0.0324,0.013523,0.002678,0.000431,0.000353
9304000,0.0324,0.013523,0.002678,0.000431,0.000588
9305000,0.0324,0.013523,0.002678,0.000431,0.000353
9306000,0.0324,0.013523,0.002678,0.000431,0.000588
9307000,0.0324,0.013523,0.002678,0.000431,0.000353
9308000,0.0324,0.013523,0.002678,0.000431,0.000470
9309000,0.0324,0.013523,0.002678,0.000431,0.000470
9310000,0.0324,0.013523,0.002678,0.000431,0.000470
9311000,0.0324,0.013523,0.002678,0.000431,0.000470
9312000,0.0324,0.013523,0.002678,0.000431,0.000353
9313000,0.0324,0.013523,0.002678,0.000431,0.000705
9314000,0.0324,0.013523,0.002678,0.000431,0.000588
9315000,0.0324,0.013523,0.002678,0.000431,0.000470
9316000,0.0324,0.013523,0.002678,0.000431,0.000588
9317000,0.0324,0.013523,0.002678,0.000431,0.000353
9318000,0.0324,0.013523,0.002678,0.000431,0.000588
9319000,0.0324,0.013523,0.002678,0.000431,0.000353
9320000,0.0324,0.013523,0.002678,0.000431,0.000588
9321000,0.0324,0.013523,0.002678,0.000431,0.000353
9322000,0.0324,0.013523,0.002678,0.000431,0.000705
9323000,0.0324,0.013523,0.002678,0.000431,0.000470
9324000,0.0324,0.013523,0.002678,0.000431,0.000470
9325000,0.0324,0.013523,0.002678,0.000431,0.000470
9326000,0.0324,0.013523,0.002678,0.000431,0.000353
9327000,0.0324,0.013523,0.002678,0.000431,0.000470
9328000,0.0324,0.013523,0.002678,0.000431,0.000470
9329000,0.0324,0.013523,0.002678,0.000431,0.000588
9330000,0.0324,0.013523,0.002678,0.000431,0.000353
9331000,0.0324,0.013523,0.002678,0.000431,0.000588
9332000,0.0324,0.013523,0.002678,0.000431,0.000353
9333000,0.0324,0.013523,0.002678,0.000431,0.000588
9334000,0.0324,0.013523,0.002678,0.000431,0.000353
9335000,0.0324,0.013523,0.002678,0.000431,0.000588
9336000,0.0324,0.013523,0.002678,0.000431,0.000353
9337000,0.0324,0.013523,0.002678,0.000431,0.000470
9338000,0.0324,0.013523,0.002678,0.000431,0.000470
9339000,0.0324,0.013523,0.002678,0.000431,0.000588
9340000,0.0324,0.013523,0.002678,0.000431,0.000353
9341000,0.0324,0.013523,0.002678,0.000431,0.000705
9342000,0.0324,0.013523,0.002678,0.000431,0.000470
9343000,0.0324,0.013523,0.002678,0.000431,0.000470
9344000,0.0324,0.013523,0.002678,0.000431,0.000470
9345000,0.0324,0.013523,0.002678,0.000431,0.000470
9346000,0.0324,0.013523,0.002678,0.000431,0.000470
9347000,0.0324,0.013523,0.002678,0.000431,0.000353
9348000,0.0324,0.013523,0.002678,0.000431,0.000705
9349000,0.0324,0.013523,0.002678,0.000431,0.000470
9350000,0.0324,0.013523,0.002678,0.000431,0.000588
9351000,0.0324,0.013523,0.002678,0.000431,0.000470
9352000,0.0324,0.013523,0.002678,0.000431,0.000588
9353000,0.0324,0.013523,0.002678,0.000431,0.000470
9354000,0.0324,0.013523,0.002678,0.000431,0.000353
9355000,0.0324,0.013523,0.002678,0.000431,0.000588
9356000,0.0324,0.013523,0.002678,0.000431,0.000353
9357000,0.0324,0.013523,0.002678,0.000431,0.000588
9358000,0.0324,0.013523,0.002678,0.000431,0.000353
9359000,0.0324,0.013523,0.002678,0.000431,0.000470
9360000,0.0324,0.013523,0.002678,0.000431,0.000470
9361000,0.0324,0.013523,0.002678,0.000431,0.000705
9362000,0.0324,0.013523,0.002678,0.000431,0.000470
9363000,0.0324,0.013523,0.002678,0.000431,0.000470
9364000,0.0324,0.013523,0.002678,0.000431,0.000470
9365000,0.0324,0.013523,0.002678,0.000431,0.000470
9366000,0.0324,0.013523,0.002678,0.000431,0.000470
9367000,0.0324,0.013523,0.002678,0.000431,0.000470
9368000,0.0324,0.013523,0.002678,0.000431,0.000353
9369000,0.0324,0.013523,0.002678,0.000431,0.000588
9370000,0.0324,0.013523,0.002678,0.000431,0.000353
9371000,0.0324,0.013523,0.002678,0.000431,0.000470
9372000,0.0324,0.013523,0.002678,0.000431,0.000353
9373000,0.0324,0.013523,0.002678,0.000431,0.000705
9374000,0.0324,0.013523,0.002678,0.000431,0.000353
9375000,0.0324,0.013523,0.002678,0.000431,0.000588
9376000,0.0324,0.013523,0.002678,0.000431,0.000353
9377000,0.0324,0.013523,0.002678,0.000431,0.000588
9378000,0.0324,0.013523,0.002678,0.000431,0.000353
9379000,0.0324,0.013523,0.002678,0.000431,0.000705
9380000,0.0324,0.013523,0.002678,0.000431,0.000353
9381000,0.0324,0.013523,0.002678,0.000431,0.000588
9382000,0.0324,0.013523,0.002678,0.000431,0.000588
9383000,0.0324,0.013523,0.002678,0.000431,0.000353
9384000,0.0324,0.013523,0.002678,0.000431,0.000588
9385000,0.0324,0.013523,0.002678,0.000431,0.000470
9386000,0.0324,0.013523,0.002678,0.000431,0.000470
9387000,0.0324,0.013523,0.002678,0.000431,0.000470
9388000,0.0324,0.013523,0.002678,0.000431,0.000470
9389000,0.0324,0.013523,0.002678,0.000431,0.000588
