Cycle,Area(mm^2),PeakDynamic(W),SubthresholdLeakage(W),GateLeakage(W),RunTimeDynamic(W)
9000000,0.0324,0.013523,0.002678,0.000431,0.009520
9001000,0.0324,0.013523,0.002678,0.000431,0.008462
9002000,0.0324,0.013523,0.002678,0.000431,0.009637
9003000,0.0324,0.013523,0.002678,0.000431,0.007404
9004000,0.0324,0.013523,0.002678,0.000431,0.009990
9005000,0.0324,0.013523,0.002678,0.000431,0.007992
9006000,0.0324,0.013523,0.002678,0.000431,0.009637
9007000,0.0324,0.013523,0.002678,0.000431,0.008345
9008000,0.0324,0.013523,0.002678,0.000431,0.009050
9009000,0.0324,0.013523,0.002678,0.000431,0.007992
9010000,0.0324,0.013523,0.002678,0.000431,0.009637
9011000,0.0324,0.013523,0.002678,0.000431,0.009520
9012000,0.0324,0.013523,0.002678,0.000431,0.008580
9013000,0.0324,0.013523,0.002678,0.000431,0.008227
9014000,0.0324,0.013523,0.002678,0.000431,0.010460
9015000,0.0324,0.013523,0.002678,0.000431,0.008227
9016000,0.0324,0.013523,0.002678,0.000431,0.008345
9017000,0.0324,0.013523,0.002678,0.000431,0.008932
9018000,0.0324,0.013523,0.002678,0.000431,0.008932
9019000,0.0324,0.013523,0.002678,0.000431,0.008932
9020000,0.0324,0.013523,0.002678,0.000431,0.007992
9021000,0.0324,0.013523,0.002678,0.000431,0.009050
9022000,0.0324,0.013523,0.002678,0.000431,0.008697
9023000,0.0324,0.013523,0.002678,0.000431,0.008932
9024000,0.0324,0.013523,0.002678,0.000431,0.008462
9025000,0.0324,0.013523,0.002678,0.000431,0.009520
9026000,0.0324,0.013523,0.002678,0.000431,0.008227
9027000,0.0324,0.013523,0.002678,0.000431,0.009285
9028000,0.0324,0.013523,0.002678,0.000431,0.008580
9029000,0.0324,0.013523,0.002678,0.000431,0.008580
9030000,0.0324,0.013523,0.002678,0.000431,0.009050
9031000,0.0324,0.013523,0.002678,0.000431,0.008932
9032000,0.0324,0.013523,0.002678,0.000431,0.009402
9033000,0.0324,0.013523,0.002678,0.000431,0.008345
9034000,0.0324,0.013523,0.002678,0.000431,0.009990
9035000,0.0324,0.013523,0.002678,0.000431,0.007992
9036000,0.0324,0.013523,0.002678,0.000431,0.008580
9037000,0.0324,0.013523,0.002678,0.000431,0.008580
9038000,0.0324,0.013523,0.002678,0.000431,0.009050
9039000,0.0324,0.013523,0.002678,0.000431,0.008462
9040000,0.0324,0.013523,0.002678,0.000431,0.009167
9041000,0.0324,0.013523,0.002678,0.000431,0.008462
9042000,0.0324,0.013523,0.002678,0.000431,0.010107
9043000,0.0324,0.013523,0.002678,0.000431,0.007992
9044000,0.0324,0.013523,0.002678,0.000431,0.008697
9045000,0.0324,0.013523,0.002678,0.000431,0.009167
9046000,0.0324,0.013523,0.002678,0.000431,0.009167
9047000,0.0324,0.013523,0.002678,0.000431,0.008580
9048000,0.0324,0.013523,0.002678,0.000431,0.009050
9049000,0.0324,0.013523,0.002678,0.000431,0.008932
9050000,0.0324,0.013523,0.002678,0.000431,0.009050
9051000,0.0324,0.013523,0.002678,0.000431,0.008227
9052000,0.0324,0.013523,0.002678,0.000431,0.009050
9053000,0.0324,0.013523,0.002678,0.000431,0.008462
9054000,0.0324,0.013523,0.002678,0.000431,0.009050
9055000,0.0324,0.013523,0.002678,0.000431,0.008932
9056000,0.0324,0.013523,0.002678,0.000431,0.010107
9057000,0.0324,0.013523,0.002678,0.000431,0.006934
9058000,0.0324,0.013523,0.002678,0.000431,0.008932
9059000,0.0324,0.013523,0.002678,0.000431,0.008109
9060000,0.0324,0.013523,0.002678,0.000431,0.007522
9061000,0.0324,0.013523,0.002678,0.000431,0.007639
9062000,0.0324,0.013523,0.002678,0.000431,0.009637
9063000,0.0324,0.013523,0.002678,0.000431,0.007287
9064000,0.0324,0.013523,0.002678,0.000431,0.007757
9065000,0.0324,0.013523,0.002678,0.000431,0.008932
9066000,0.0324,0.013523,0.002678,0.000431,0.007757
9067000,0.0324,0.013523,0.002678,0.000431,0.007874
9068000,0.0324,0.013523,0.002678,0.000431,0.008227
9069000,0.0324,0.013523,0.002678,0.000431,0.008345
9070000,0.0324,0.013523,0.002678,0.000431,0.007992
9071000,0.0324,0.013523,0.002678,0.000431,0.008109
9072000,0.0324,0.013523,0.002678,0.000431,0.008345
9073000,0.0324,0.013523,0.002678,0.000431,0.008345
9074000,0.0324,0.013523,0.002678,0.000431,0.007639
9075000,0.0324,0.013523,0.002678,0.000431,0.009050
9076000,0.0324,0.013523,0.002678,0.000431,0.007404
9077000,0.0324,0.013523,0.002678,0.000431,0.007874
9078000,0.0324,0.013523,0.002678,0.000431,0.008345
9079000,0.0324,0.013523,0.002678,0.000431,0.008462
9080000,0.0324,0.013523,0.002678,0.000431,0.007287
9081000,0.0324,0.013523,0.002678,0.000431,0.007522
9082000,0.0324,0.013523,0.002678,0.000431,0.008815
9083000,0.0324,0.013523,0.002678,0.000431,0.007522
9084000,0.0324,0.013523,0.002678,0.000431,0.007757
9085000,0.0324,0.013523,0.002678,0.000431,0.007522
9086000,0.0324,0.013523,0.002678,0.000431,0.008345
9087000,0.0324,0.013523,0.002678,0.000431,0.006699
9088000,0.0324,0.013523,0.002678,0.000431,0.007404
9089000,0.0324,0.013523,0.002678,0.000431,0.007992
9090000,0.0324,0.013523,0.002678,0.000431,0.008109
9091000,0.0324,0.013523,0.002678,0.000431,0.007639
9092000,0.0324,0.013523,0.002678,0.000431,0.007287
9093000,0.0324,0.013523,0.002678,0.000431,0.007992
9094000,0.0324,0.013523,0.002678,0.000431,0.007757
9095000,0.0324,0.013523,0.002678,0.000431,0.007287
9096000,0.0324,0.013523,0.002678,0.000431,0.007639
9097000,0.0324,0.013523,0.002678,0.000431,0.008227
9098000,0.0324,0.013523,0.002678,0.000431,0.007639
9099000,0.0324,0.013523,0.002678,0.000431,0.007757
9100000,0.0324,0.013523,0.002678,0.000431,0.007287
9101000,0.0324,0.013523,0.002678,0.000431,0.007287
9102000,0.0324,0.013523,0.002678,0.000431,0.008345
9103000,0.0324,0.013523,0.002678,0.000431,0.007874
9104000,0.0324,0.013523,0.002678,0.000431,0.007404
9105000,0.0324,0.013523,0.002678,0.000431,0.007169
9106000,0.0324,0.013523,0.002678,0.000431,0.008580
9107000,0.0324,0.013523,0.002678,0.000431,0.007639
9108000,0.0324,0.013523,0.002678,0.000431,0.007052
9109000,0.0324,0.013523,0.002678,0.000431,0.008227
9110000,0.0324,0.013523,0.002678,0.000431,0.008462
9111000,0.0324,0.013523,0.002678,0.000431,0.007052
9112000,0.0324,0.013523,0.002678,0.000431,0.008462
9113000,0.0324,0.013523,0.002678,0.000431,0.008580
9114000,0.0324,0.013523,0.002678,0.000431,0.007874
9115000,0.0324,0.013523,0.002678,0.000431,0.007874
9116000,0.0324,0.013523,0.002678,0.000431,0.007757
9117000,0.0324,0.013523,0.002678,0.000431,0.007639
9118000,0.0324,0.013523,0.002678,0.000431,0.007639
9119000,0.0324,0.013523,0.002678,0.000431,0.007992
9120000,0.0324,0.013523,0.002678,0.000431,0.008345
9121000,0.0324,0.013523,0.002678,0.000431,0.007992
9122000,0.0324,0.013523,0.002678,0.000431,0.007169
9123000,0.0324,0.013523,0.002678,0.000431,0.008580
9124000,0.0324,0.013523,0.002678,0.000431,0.007287
9125000,0.0324,0.013523,0.002678,0.000431,0.007757
9126000,0.0324,0.013523,0.002678,0.000431,0.007874
9127000,0.0324,0.013523,0.002678,0.000431,0.008345
9128000,0.0324,0.013523,0.002678,0.000431,0.006817
9129000,0.0324,0.013523,0.002678,0.000431,0.007874
9130000,0.0324,0.013523,0.002678,0.000431,0.008580
9131000,0.0324,0.013523,0.002678,0.000431,0.008109
9132000,0.0324,0.013523,0.002678,0.000431,0.007639
9133000,0.0324,0.013523,0.002678,0.000431,0.007992
9134000,0.0324,0.013523,0.002678,0.000431,0.008109
9135000,0.0324,0.013523,0.002678,0.000431,0.007287
9136000,0.0324,0.013523,0.002678,0.000431,0.007874
9137000,0.0324,0.013523,0.002678,0.000431,0.008227
9138000,0.0324,0.013523,0.002678,0.000431,0.007639
9139000,0.0324,0.013523,0.002678,0.000431,0.008580
9140000,0.0324,0.013523,0.002678,0.000431,0.007522
9141000,0.0324,0.013523,0.002678,0.000431,0.007169
9142000,0.0324,0.013523,0.002678,0.000431,0.008109
9143000,0.0324,0.013523,0.002678,0.000431,0.008109
9144000,0.0324,0.013523,0.002678,0.000431,0.007874
9145000,0.0324,0.013523,0.002678,0.000431,0.007639
9146000,0.0324,0.013523,0.002678,0.000431,0.007992
9147000,0.0324,0.013523,0.002678,0.000431,0.008345
9148000,0.0324,0.013523,0.002678,0.000431,0.007874
9149000,0.0324,0.013523,0.002678,0.000431,0.007522
9150000,0.0324,0.013523,0.002678,0.000431,0.008227
9151000,0.0324,0.013523,0.002678,0.000431,0.008109
9152000,0.0324,0.013523,0.002678,0.000431,0.007639
9153000,0.0324,0.013523,0.002678,0.000431,0.007639
9154000,0.0324,0.013523,0.002678,0.000431,0.008109
9155000,0.0324,0.013523,0.002678,0.000431,0.008345
9156000,0.0324,0.013523,0.002678,0.000431,0.007639
9157000,0.0324,0.013523,0.002678,0.000431,0.007639
9158000,0.0324,0.013523,0.002678,0.000431,0.008462
9159000,0.0324,0.013523,0.002678,0.000431,0.007522
9160000,0.0324,0.013523,0.002678,0.000431,0.007874
9161000,0.0324,0.013523,0.002678,0.000431,0.008227
9162000,0.0324,0.013523,0.002678,0.000431,0.007522
9163000,0.0324,0.013523,0.002678,0.000431,0.007992
9164000,0.0324,0.013523,0.002678,0.000431,0.007874
9165000,0.0324,0.013523,0.002678,0.000431,0.008345
9166000,0.0324,0.013523,0.002678,0.000431,0.007169
9167000,0.0324,0.013523,0.002678,0.000431,0.008109
9168000,0.0324,0.013523,0.002678,0.000431,0.006934
9169000,0.0324,0.013523,0.002678,0.000431,0.007639
9170000,0.0324,0.013523,0.002678,0.000431,0.006699
9171000,0.0324,0.013523,0.002678,0.000431,0.008109
9172000,0.0324,0.013523,0.002678,0.000431,0.007404
9173000,0.0324,0.013523,0.002678,0.000431,0.006582
9174000,0.0324,0.013523,0.002678,0.000431,0.007287
9175000,0.0324,0.013523,0.002678,0.000431,0.008345
9176000,0.0324,0.013523,0.002678,0.000431,0.006699
9177000,0.0324,0.013523,0.002678,0.000431,0.007404
9178000,0.0324,0.013523,0.002678,0.000431,0.007874
9179000,0.0324,0.013523,0.002678,0.000431,0.007874
9180000,0.0324,0.013523,0.002678,0.000431,0.006464
9181000,0.0324,0.013523,0.002678,0.000431,0.007757
9182000,0.0324,0.013523,0.002678,0.000431,0.007522
9183000,0.0324,0.013523,0.002678,0.000431,0.007287
9184000,0.0324,0.013523,0.002678,0.000431,0.006699
9185000,0.0324,0.013523,0.002678,0.000431,0.007992
9186000,0.0324,0.013523,0.002678,0.000431,0.005876
9187000,0.0324,0.013523,0.002678,0.000431,0.007522
9188000,0.0324,0.013523,0.002678,0.000431,0.007757
9189000,0.0324,0.013523,0.002678,0.000431,0.007404
9190000,0.0324,0.013523,0.002678,0.000431,0.006582
9191000,0.0324,0.013523,0.002678,0.000431,0.007874
9192000,0.0324,0.013523,0.002678,0.000431,0.007522
9193000,0.0324,0.013523,0.002678,0.000431,0.007169
9194000,0.0324,0.013523,0.002678,0.000431,0.006934
9195000,0.0324,0.013523,0.002678,0.000431,0.008109
9196000,0.0324,0.013523,0.002678,0.000431,0.007169
9197000,0.0324,0.013523,0.002678,0.000431,0.006817
9198000,0.0324,0.013523,0.002678,0.000431,0.007522
9199000,0.0324,0.013523,0.002678,0.000431,0.008227
9200000,0.0324,0.013523,0.002678,0.000431,0.007169
9201000,0.0324,0.013523,0.002678,0.000431,0.006934
9202000,0.0324,0.013523,0.002678,0.000431,0.007757
9203000,0.0324,0.013523,0.002678,0.000431,0.006934
9204000,0.0324,0.013523,0.002678,0.000431,0.007287
9205000,0.0324,0.013523,0.002678,0.000431,0.007757
9206000,0.0324,0.013523,0.002678,0.000431,0.007639
9207000,0.0324,0.013523,0.002678,0.000431,0.006934
9208000,0.0324,0.013523,0.002678,0.000431,0.006817
9209000,0.0324,0.013523,0.002678,0.000431,0.008227
9210000,0.0324,0.013523,0.002678,0.000431,0.007052
9211000,0.0324,0.013523,0.002678,0.000431,0.007169
9212000,0.0324,0.013523,0.002678,0.000431,0.007639
9213000,0.0324,0.013523,0.002678,0.000431,0.008815
9214000,0.0324,0.013523,0.002678,0.000431,0.006229
9215000,0.0324,0.013523,0.002678,0.000431,0.007522
9216000,0.0324,0.013523,0.002678,0.000431,0.007287
9217000,0.0324,0.013523,0.002678,0.000431,0.006347
9218000,0.0324,0.013523,0.002678,0.000431,0.006699
9219000,0.0324,0.013523,0.002678,0.000431,0.007874
9220000,0.0324,0.013523,0.002678,0.000431,0.006699
9221000,0.0324,0.013523,0.002678,0.000431,0.006464
9222000,0.0324,0.013523,0.002678,0.000431,0.007522
9223000,0.0324,0.013523,0.002678,0.000431,0.007874
9224000,0.0324,0.013523,0.002678,0.000431,0.006464
9225000,0.0324,0.013523,0.002678,0.000431,0.007169
9226000,0.0324,0.013523,0.002678,0.000431,0.007404
9227000,0.0324,0.013523,0.002678,0.000431,0.007052
9228000,0.0324,0.013523,0.002678,0.000431,0.006347
9229000,0.0324,0.013523,0.002678,0.000431,0.007992
9230000,0.0324,0.013523,0.002678,0.000431,0.006934
9231000,0.0324,0.013523,0.002678,0.000431,0.005641
9232000,0.0324,0.013523,0.002678,0.000431,0.007757
9233000,0.0324,0.013523,0.002678,0.000431,0.007169
9234000,0.0324,0.013523,0.002678,0.000431,0.007404
9235000,0.0324,0.013523,0.002678,0.000431,0.007169
9236000,0.0324,0.013523,0.002678,0.000431,0.007757
9237000,0.0324,0.013523,0.002678,0.000431,0.006817
9238000,0.0324,0.013523,0.002678,0.000431,0.006817
9239000,0.0324,0.013523,0.002678,0.000431,0.006817
9240000,0.0324,0.013523,0.002678,0.000431,0.008345
9241000,0.0324,0.013523,0.002678,0.000431,0.006582
9242000,0.0324,0.013523,0.002678,0.000431,0.007052
9243000,0.0324,0.013523,0.002678,0.000431,0.007522
9244000,0.0324,0.013523,0.002678,0.000431,0.006699
9245000,0.0324,0.013523,0.002678,0.000431,0.006229
9246000,0.0324,0.013523,0.002678,0.000431,0.007639
9247000,0.0324,0.013523,0.002678,0.000431,0.006934
9248000,0.0324,0.013523,0.002678,0.000431,0.006111
9249000,0.0324,0.013523,0.002678,0.000431,0.006817
9250000,0.0324,0.013523,0.002678,0.000431,0.007757
9251000,0.0324,0.013523,0.002678,0.000431,0.006464
9252000,0.0324,0.013523,0.002678,0.000431,0.006817
9253000,0.0324,0.013523,0.002678,0.000431,0.007404
9254000,0.0324,0.013523,0.002678,0.000431,0.006347
9255000,0.0324,0.013523,0.002678,0.000431,0.006817
9256000,0.0324,0.013523,0.002678,0.000431,0.007522
9257000,0.0324,0.013523,0.002678,0.000431,0.007404
9258000,0.0324,0.013523,0.002678,0.000431,0.006582
9259000,0.0324,0.013523,0.002678,0.000431,0.006934
9260000,0.0324,0.013523,0.002678,0.000431,0.007522
9261000,0.0324,0.013523,0.002678,0.000431,0.007052
9262000,0.0324,0.013523,0.002678,0.000431,0.006229
9263000,0.0324,0.013523,0.002678,0.000431,0.007874
9264000,0.0324,0.013523,0.002678,0.000431,0.006582
9265000,0.0324,0.013523,0.002678,0.000431,0.007404
9266000,0.0324,0.013523,0.002678,0.000431,0.006934
9267000,0.0324,0.013523,0.002678,0.000431,0.007522
9268000,0.0324,0.013523,0.002678,0.000431,0.006582
9269000,0.0324,0.013523,0.002678,0.000431,0.007287
9270000,0.0324,0.013523,0.002678,0.000431,0.007169
9271000,0.0324,0.013523,0.002678,0.000431,0.007522
9272000,0.0324,0.013523,0.002678,0.000431,0.006464
9273000,0.0324,0.013523,0.002678,0.000431,0.007639
9274000,0.0324,0.013523,0.002678,0.000431,0.007287
9275000,0.0324,0.013523,0.002678,0.000431,0.007052
9276000,0.0324,0.013523,0.002678,0.000431,0.006699
9277000,0.0324,0.013523,0.002678,0.000431,0.007639
9278000,0.0324,0.013523,0.002678,0.000431,0.006464
9279000,0.0324,0.013523,0.002678,0.000431,0.006934
9280000,0.0324,0.013523,0.002678,0.000431,0.007522
9281000,0.0324,0.013523,0.002678,0.000431,0.006582
9282000,0.0324,0.013523,0.002678,0.000431,0.006111
9283000,0.0324,0.013523,0.002678,0.000431,0.006464
9284000,0.0324,0.013523,0.002678,0.000431,0.007169
9285000,0.0324,0.013523,0.002678,0.000431,0.006229
9286000,0.0324,0.013523,0.002678,0.000431,0.006111
9287000,0.0324,0.013523,0.002678,0.000431,0.007522
9288000,0.0324,0.013523,0.002678,0.000431,0.006229
9289000,0.0324,0.013523,0.002678,0.000431,0.006229
9290000,0.0324,0.013523,0.002678,0.000431,0.007404
9291000,0.0324,0.013523,0.002678,0.000431,0.006464
9292000,0.0324,0.013523,0.002678,0.000431,0.006229
9293000,0.0324,0.013523,0.002678,0.000431,0.006582
9294000,0.0324,0.013523,0.002678,0.000431,0.007287
9295000,0.0324,0.013523,0.002678,0.000431,0.006347
9296000,0.0324,0.013523,0.002678,0.000431,0.006111
9297000,0.0324,0.013523,0.002678,0.000431,0.006699
9298000,0.0324,0.013523,0.002678,0.000431,0.006934
9299000,0.0324,0.013523,0.002678,0.000431,0.006229
9300000,0.0324,0.013523,0.002678,0.000431,0.006347
9301000,0.0324,0.013523,0.002678,0.000431,0.007287
9302000,0.0324,0.013523,0.002678,0.000431,0.006111
9303000,0.0324,0.013523,0.002678,0.000431,0.006229
9304000,0.0324,0.013523,0.002678,0.000431,0.007404
9305000,0.0324,0.013523,0.002678,0.000431,0.005994
9306000,0.0324,0.013523,0.002678,0.000431,0.005994
9307000,0.0324,0.013523,0.002678,0.000431,0.007052
9308000,0.0324,0.013523,0.002678,0.000431,0.006934
9309000,0.0324,0.013523,0.002678,0.000431,0.005641
9310000,0.0324,0.013523,0.002678,0.000431,0.007169
9311000,0.0324,0.013523,0.002678,0.000431,0.007287
9312000,0.0324,0.013523,0.002678,0.000431,0.006464
9313000,0.0324,0.013523,0.002678,0.000431,0.005876
9314000,0.0324,0.013523,0.002678,0.000431,0.007287
9315000,0.0324,0.013523,0.002678,0.000431,0.006347
9316000,0.0324,0.013523,0.002678,0.000431,0.006582
9317000,0.0324,0.013523,0.002678,0.000431,0.006464
9318000,0.0324,0.013523,0.002678,0.000431,0.007404
9319000,0.0324,0.013523,0.002678,0.000431,0.005876
9320000,0.0324,0.013523,0.002678,0.000431,0.006699
9321000,0.0324,0.013523,0.002678,0.000431,0.007287
9322000,0.0324,0.013523,0.002678,0.000431,0.006582
9323000,0.0324,0.013523,0.002678,0.000431,0.006229
9324000,0.0324,0.013523,0.002678,0.000431,0.007287
9325000,0.0324,0.013523,0.002678,0.000431,0.006699
9326000,0.0324,0.013523,0.002678,0.000431,0.006347
9327000,0.0324,0.013523,0.002678,0.000431,0.006699
9328000,0.0324,0.013523,0.002678,0.000431,0.007992
9329000,0.0324,0.013523,0.002678,0.000431,0.005759
9330000,0.0324,0.013523,0.002678,0.000431,0.005876
9331000,0.0324,0.013523,0.002678,0.000431,0.006229
9332000,0.0324,0.013523,0.002678,0.000431,0.005641
9333000,0.0324,0.013523,0.002678,0.000431,0.005641
9334000,0.0324,0.013523,0.002678,0.000431,0.006229
9335000,0.0324,0.013523,0.002678,0.000431,0.006229
9336000,0.0324,0.013523,0.002678,0.000431,0.005171
9337000,0.0324,0.013523,0.002678,0.000431,0.006111
9338000,0.0324,0.013523,0.002678,0.000431,0.005994
9339000,0.0324,0.013523,0.002678,0.000431,0.005994
9340000,0.0324,0.013523,0.002678,0.000431,0.005289
9341000,0.0324,0.013523,0.002678,0.000431,0.006229
9342000,0.0324,0.013523,0.002678,0.000431,0.005524
9343000,0.0324,0.013523,0.002678,0.000431,0.005641
9344000,0.0324,0.013523,0.002678,0.000431,0.006111
9345000,0.0324,0.013523,0.002678,0.000431,0.005876
9346000,0.0324,0.013523,0.002678,0.000431,0.005876
9347000,0.0324,0.013523,0.002678,0.000431,0.005759
9348000,0.0324,0.013523,0.002678,0.000431,0.005406
9349000,0.0324,0.013523,0.002678,0.000431,0.006229
9350000,0.0324,0.013523,0.002678,0.000431,0.005641
9351000,0.0324,0.013523,0.002678,0.000431,0.005759
9352000,0.0324,0.013523,0.002678,0.000431,0.006347
9353000,0.0324,0.013523,0.002678,0.000431,0.005641
9354000,0.0324,0.013523,0.002678,0.000431,0.005524
9355000,0.0324,0.013523,0.002678,0.000431,0.006347
9356000,0.0324,0.013523,0.002678,0.000431,0.005759
9357000,0.0324,0.013523,0.002678,0.000431,0.005994
9358000,0.0324,0.013523,0.002678,0.000431,0.005524
9359000,0.0324,0.013523,0.002678,0.000431,0.005876
9360000,0.0324,0.013523,0.002678,0.000431,0.005524
9361000,0.0324,0.013523,0.002678,0.000431,0.005759
9362000,0.0324,0.013523,0.002678,0.000431,0.005876
9363000,0.0324,0.013523,0.002678,0.000431,0.006111
9364000,0.0324,0.013523,0.002678,0.000431,0.005054
9365000,0.0324,0.013523,0.002678,0.000431,0.005994
9366000,0.0324,0.013523,0.002678,0.000431,0.006111
9367000,0.0324,0.013523,0.002678,0.000431,0.005759
9368000,0.0324,0.013523,0.002678,0.000431,0.005289
9369000,0.0324,0.013523,0.002678,0.000431,0.006464
9370000,0.0324,0.013523,0.002678,0.000431,0.005524
9371000,0.0324,0.013523,0.002678,0.000431,0.005406
9372000,0.0324,0.013523,0.002678,0.000431,0.005759
9373000,0.0324,0.013523,0.002678,0.000431,0.006464
9374000,0.0324,0.013523,0.002678,0.000431,0.005406
9375000,0.0324,0.013523,0.002678,0.000431,0.005994
9376000,0.0324,0.013523,0.002678,0.000431,0.006229
9377000,0.0324,0.013523,0.002678,0.000431,0.005759
9378000,0.0324,0.013523,0.002678,0.000431,0.005171
9379000,0.0324,0.013523,0.002678,0.000431,0.006699
9380000,0.0324,0.013523,0.002678,0.000431,0.005994
9381000,0.0324,0.013523,0.002678,0.000431,0.005171
9382000,0.0324,0.013523,0.002678,0.000431,0.006229
9383000,0.0324,0.013523,0.002678,0.000431,0.005641
9384000,0.0324,0.013523,0.002678,0.000431,0.006111
9385000,0.0324,0.013523,0.002678,0.000431,0.005641
9386000,0.0324,0.013523,0.002678,0.000431,0.005524
9387000,0.0324,0.013523,0.002678,0.000431,0.005994
9388000,0.0324,0.013523,0.002678,0.000431,0.005289
9389000,0.0324,0.013523,0.002678,0.000431,0.005876
