Cycle,Area(mm^2),PeakDynamic(W),SubthresholdLeakage(W),GateLeakage(W),RunTimeDynamic(W)
12000000,0.0324,0.013523,0.002678,0.000431,0.003526
12001000,0.0324,0.013523,0.002678,0.000431,0.003526
12002000,0.0324,0.013523,0.002678,0.000431,0.003291
12003000,0.0324,0.013523,0.002678,0.000431,0.003526
12004000,0.0324,0.013523,0.002678,0.000431,0.003643
12005000,0.0324,0.013523,0.002678,0.000431,0.003878
12006000,0.0324,0.013523,0.002678,0.000431,0.003173
12007000,0.0324,0.013523,0.002678,0.000431,0.004113
12008000,0.0324,0.013523,0.002678,0.000431,0.002703
12009000,0.0324,0.013523,0.002678,0.000431,0.004231
12010000,0.0324,0.013523,0.002678,0.000431,0.003056
12011000,0.0324,0.013523,0.002678,0.000431,0.003761
12012000,0.0324,0.013523,0.002678,0.000431,0.002938
12013000,0.0324,0.013523,0.002678,0.000431,0.004113
12014000,0.0324,0.013523,0.002678,0.000431,0.003761
12015000,0.0324,0.013523,0.002678,0.000431,0.002938
12016000,0.0324,0.013523,0.002678,0.000431,0.004113
12017000,0.0324,0.013523,0.002678,0.000431,0.003291
12018000,0.0324,0.013523,0.002678,0.000431,0.003643
12019000,0.0324,0.013523,0.002678,0.000431,0.003643
12020000,0.0324,0.013523,0.002678,0.000431,0.003408
12021000,0.0324,0.013523,0.002678,0.000431,0.003878
12022000,0.0324,0.013523,0.002678,0.000431,0.003056
12023000,0.0324,0.013523,0.002678,0.000431,0.003643
12024000,0.0324,0.013523,0.002678,0.000431,0.003878
12025000,0.0324,0.013523,0.002678,0.000431,0.003643
12026000,0.0324,0.013523,0.002678,0.000431,0.003526
12027000,0.0324,0.013523,0.002678,0.000431,0.003878
12028000,0.0324,0.013523,0.002678,0.000431,0.003878
12029000,0.0324,0.013523,0.002678,0.000431,0.003643
12030000,0.0324,0.013523,0.002678,0.000431,0.003643
12031000,0.0324,0.013523,0.002678,0.000431,0.003173
12032000,0.0324,0.013523,0.002678,0.000431,0.003761
12033000,0.0324,0.013523,0.002678,0.000431,0.003408
12034000,0.0324,0.013523,0.002678,0.000431,0.004113
12035000,0.0324,0.013523,0.002678,0.000431,0.003643
12036000,0.0324,0.013523,0.002678,0.000431,0.003996
12037000,0.0324,0.013523,0.002678,0.000431,0.003291
12038000,0.0324,0.013523,0.002678,0.000431,0.004113
12039000,0.0324,0.013523,0.002678,0.000431,0.002821
12040000,0.0324,0.013523,0.002678,0.000431,0.003761
12041000,0.0324,0.013523,0.002678,0.000431,0.003643
12042000,0.0324,0.013523,0.002678,0.000431,0.003408
12043000,0.0324,0.013523,0.002678,0.000431,0.003526
12044000,0.0324,0.013523,0.002678,0.000431,0.003643
12045000,0.0324,0.013523,0.002678,0.000431,0.003408
12046000,0.0324,0.013523,0.002678,0.000431,0.003526
12047000,0.0324,0.013523,0.002678,0.000431,0.003526
12048000,0.0324,0.013523,0.002678,0.000431,0.003996
12049000,0.0324,0.013523,0.002678,0.000431,0.003056
12050000,0.0324,0.013523,0.002678,0.000431,0.003291
12051000,0.0324,0.013523,0.002678,0.000431,0.003408
12052000,0.0324,0.013523,0.002678,0.000431,0.003761
12053000,0.0324,0.013523,0.002678,0.000431,0.003291
12054000,0.0324,0.013523,0.002678,0.000431,0.003761
12055000,0.0324,0.013523,0.002678,0.000431,0.003526
12056000,0.0324,0.013523,0.002678,0.000431,0.003761
12057000,0.0324,0.013523,0.002678,0.000431,0.003643
12058000,0.0324,0.013523,0.002678,0.000431,0.003761
12059000,0.0324,0.013523,0.002678,0.000431,0.003173
12060000,0.0324,0.013523,0.002678,0.000431,0.003878
12061000,0.0324,0.013523,0.002678,0.000431,0.003526
12062000,0.0324,0.013523,0.002678,0.000431,0.002938
12063000,0.0324,0.013523,0.002678,0.000431,0.004231
12064000,0.0324,0.013523,0.002678,0.000431,0.003173
12065000,0.0324,0.013523,0.002678,0.000431,0.003526
12066000,0.0324,0.013523,0.002678,0.000431,0.003408
12067000,0.0324,0.013523,0.002678,0.000431,0.003408
12068000,0.0324,0.013523,0.002678,0.000431,0.003878
12069000,0.0324,0.013523,0.002678,0.000431,0.003173
12070000,0.0324,0.013523,0.002678,0.000431,0.003761
12071000,0.0324,0.013523,0.002678,0.000431,0.003761
12072000,0.0324,0.013523,0.002678,0.000431,0.003643
12073000,0.0324,0.013523,0.002678,0.000431,0.003408
12074000,0.0324,0.013523,0.002678,0.000431,0.003643
12075000,0.0324,0.013523,0.002678,0.000431,0.003526
12076000,0.0324,0.013523,0.002678,0.000431,0.003173
12077000,0.0324,0.013523,0.002678,0.000431,0.003878
12078000,0.0324,0.013523,0.002678,0.000431,0.003761
12079000,0.0324,0.013523,0.002678,0.000431,0.003643
12080000,0.0324,0.013523,0.002678,0.000431,0.003761
12081000,0.0324,0.013523,0.002678,0.000431,0.003761
12082000,0.0324,0.013523,0.002678,0.000431,0.003643
12083000,0.0324,0.013523,0.002678,0.000431,0.003526
12084000,0.0324,0.013523,0.002678,0.000431,0.003408
12085000,0.0324,0.013523,0.002678,0.000431,0.003643
12086000,0.0324,0.013523,0.002678,0.000431,0.003761
12087000,0.0324,0.013523,0.002678,0.000431,0.003643
12088000,0.0324,0.013523,0.002678,0.000431,0.004113
12089000,0.0324,0.013523,0.002678,0.000431,0.003408
12090000,0.0324,0.013523,0.002678,0.000431,0.003996
12091000,0.0324,0.013523,0.002678,0.000431,0.003761
12092000,0.0324,0.013523,0.002678,0.000431,0.003643
12093000,0.0324,0.013523,0.002678,0.000431,0.003761
12094000,0.0324,0.013523,0.002678,0.000431,0.003291
12095000,0.0324,0.013523,0.002678,0.000431,0.004231
12096000,0.0324,0.013523,0.002678,0.000431,0.003408
12097000,0.0324,0.013523,0.002678,0.000431,0.003526
12098000,0.0324,0.013523,0.002678,0.000431,0.003408
12099000,0.0324,0.013523,0.002678,0.000431,0.003761
12100000,0.0324,0.013523,0.002678,0.000431,0.003761
12101000,0.0324,0.013523,0.002678,0.000431,0.003761
12102000,0.0324,0.013523,0.002678,0.000431,0.003643
12103000,0.0324,0.013523,0.002678,0.000431,0.003878
12104000,0.0324,0.013523,0.002678,0.000431,0.003291
12105000,0.0324,0.013523,0.002678,0.000431,0.003761
12106000,0.0324,0.013523,0.002678,0.000431,0.003643
12107000,0.0324,0.013523,0.002678,0.000431,0.003761
12108000,0.0324,0.013523,0.002678,0.000431,0.003291
12109000,0.0324,0.013523,0.002678,0.000431,0.003878
12110000,0.0324,0.013523,0.002678,0.000431,0.003408
12111000,0.0324,0.013523,0.002678,0.000431,0.003996
12112000,0.0324,0.013523,0.002678,0.000431,0.003408
12113000,0.0324,0.013523,0.002678,0.000431,0.003878
12114000,0.0324,0.013523,0.002678,0.000431,0.003408
12115000,0.0324,0.013523,0.002678,0.000431,0.003878
12116000,0.0324,0.013523,0.002678,0.000431,0.003173
12117000,0.0324,0.013523,0.002678,0.000431,0.003526
12118000,0.0324,0.013523,0.002678,0.000431,0.003056
12119000,0.0324,0.013523,0.002678,0.000431,0.003761
12120000,0.0324,0.013523,0.002678,0.000431,0.003056
12121000,0.0324,0.013523,0.002678,0.000431,0.003761
12122000,0.0324,0.013523,0.002678,0.000431,0.003761
12123000,0.0324,0.013523,0.002678,0.000431,0.003761
12124000,0.0324,0.013523,0.002678,0.000431,0.003173
12125000,0.0324,0.013523,0.002678,0.000431,0.003526
12126000,0.0324,0.013523,0.002678,0.000431,0.003526
12127000,0.0324,0.013523,0.002678,0.000431,0.003526
12128000,0.0324,0.013523,0.002678,0.000431,0.003291
12129000,0.0324,0.013523,0.002678,0.000431,0.003761
12130000,0.0324,0.013523,0.002678,0.000431,0.003526
12131000,0.0324,0.013523,0.002678,0.000431,0.002468
12132000,0.0324,0.013523,0.002678,0.000431,0.003643
12133000,0.0324,0.013523,0.002678,0.000431,0.003173
12134000,0.0324,0.013523,0.002678,0.000431,0.003643
12135000,0.0324,0.013523,0.002678,0.000431,0.003173
12136000,0.0324,0.013523,0.002678,0.000431,0.003643
12137000,0.0324,0.013523,0.002678,0.000431,0.003291
12138000,0.0324,0.013523,0.002678,0.000431,0.003526
12139000,0.0324,0.013523,0.002678,0.000431,0.003291
12140000,0.0324,0.013523,0.002678,0.000431,0.003761
12141000,0.0324,0.013523,0.002678,0.000431,0.003291
12142000,0.0324,0.013523,0.002678,0.000431,0.003526
12143000,0.0324,0.013523,0.002678,0.000431,0.003408
12144000,0.0324,0.013523,0.002678,0.000431,0.003291
12145000,0.0324,0.013523,0.002678,0.000431,0.003173
12146000,0.0324,0.013523,0.002678,0.000431,0.003878
12147000,0.0324,0.013523,0.002678,0.000431,0.003173
12148000,0.0324,0.013523,0.002678,0.000431,0.003643
12149000,0.0324,0.013523,0.002678,0.000431,0.003408
12150000,0.0324,0.013523,0.002678,0.000431,0.003408
12151000,0.0324,0.013523,0.002678,0.000431,0.003643
12152000,0.0324,0.013523,0.002678,0.000431,0.003056
12153000,0.0324,0.013523,0.002678,0.000431,0.004113
12154000,0.0324,0.013523,0.002678,0.000431,0.003056
12155000,0.0324,0.013523,0.002678,0.000431,0.002938
12156000,0.0324,0.013523,0.002678,0.000431,0.003643
12157000,0.0324,0.013523,0.002678,0.000431,0.003643
12158000,0.0324,0.013523,0.002678,0.000431,0.003408
12159000,0.0324,0.013523,0.002678,0.000431,0.003761
12160000,0.0324,0.013523,0.002678,0.000431,0.003526
12161000,0.0324,0.013523,0.002678,0.000431,0.003526
12162000,0.0324,0.013523,0.002678,0.000431,0.003408
12163000,0.0324,0.013523,0.002678,0.000431,0.003878
12164000,0.0324,0.013523,0.002678,0.000431,0.003056
12165000,0.0324,0.013523,0.002678,0.000431,0.003526
12166000,0.0324,0.013523,0.002678,0.000431,0.003173
12167000,0.0324,0.013523,0.002678,0.000431,0.003878
12168000,0.0324,0.013523,0.002678,0.000431,0.003056
12169000,0.0324,0.013523,0.002678,0.000431,0.003291
12170000,0.0324,0.013523,0.002678,0.000431,0.003996
12171000,0.0324,0.013523,0.002678,0.000431,0.003291
12172000,0.0324,0.013523,0.002678,0.000431,0.003291
12173000,0.0324,0.013523,0.002678,0.000431,0.003526
12174000,0.0324,0.013523,0.002678,0.000431,0.003526
12175000,0.0324,0.013523,0.002678,0.000431,0.003408
12176000,0.0324,0.013523,0.002678,0.000431,0.003408
12177000,0.0324,0.013523,0.002678,0.000431,0.003643
12178000,0.0324,0.013523,0.002678,0.000431,0.003408
12179000,0.0324,0.013523,0.002678,0.000431,0.003173
12180000,0.0324,0.013523,0.002678,0.000431,0.003878
12181000,0.0324,0.013523,0.002678,0.000431,0.003291
12182000,0.0324,0.013523,0.002678,0.000431,0.003408
12183000,0.0324,0.013523,0.002678,0.000431,0.003526
12184000,0.0324,0.013523,0.002678,0.000431,0.004113
12185000,0.0324,0.013523,0.002678,0.000431,0.003643
12186000,0.0324,0.013523,0.002678,0.000431,0.003173
12187000,0.0324,0.013523,0.002678,0.000431,0.003996
12188000,0.0324,0.013523,0.002678,0.000431,0.003761
12189000,0.0324,0.013523,0.002678,0.000431,0.003056
12190000,0.0324,0.013523,0.002678,0.000431,0.003526
12191000,0.0324,0.013523,0.002678,0.000431,0.003761
12192000,0.0324,0.013523,0.002678,0.000431,0.003173
12193000,0.0324,0.013523,0.002678,0.000431,0.003291
12194000,0.0324,0.013523,0.002678,0.000431,0.003996
12195000,0.0324,0.013523,0.002678,0.000431,0.003643
12196000,0.0324,0.013523,0.002678,0.000431,0.003291
12197000,0.0324,0.013523,0.002678,0.000431,0.003526
12198000,0.0324,0.013523,0.002678,0.000431,0.003878
12199000,0.0324,0.013523,0.002678,0.000431,0.003173
12200000,0.0324,0.013523,0.002678,0.000431,0.003643
12201000,0.0324,0.013523,0.002678,0.000431,0.003996
12202000,0.0324,0.013523,0.002678,0.000431,0.003173
12203000,0.0324,0.013523,0.002678,0.000431,0.003056
12204000,0.0324,0.013523,0.002678,0.000431,0.003408
12205000,0.0324,0.013523,0.002678,0.000431,0.003643
12206000,0.0324,0.013523,0.002678,0.000431,0.003408
12207000,0.0324,0.013523,0.002678,0.000431,0.003643
12208000,0.0324,0.013523,0.002678,0.000431,0.003761
12209000,0.0324,0.013523,0.002678,0.000431,0.002938
12210000,0.0324,0.013523,0.002678,0.000431,0.003643
12211000,0.0324,0.013523,0.002678,0.000431,0.003761
12212000,0.0324,0.013523,0.002678,0.000431,0.003408
12213000,0.0324,0.013523,0.002678,0.000431,0.003408
12214000,0.0324,0.013523,0.002678,0.000431,0.003526
12215000,0.0324,0.013523,0.002678,0.000431,0.003643
12216000,0.0324,0.013523,0.002678,0.000431,0.003643
12217000,0.0324,0.013523,0.002678,0.000431,0.003291
12218000,0.0324,0.013523,0.002678,0.000431,0.003878
12219000,0.0324,0.013523,0.002678,0.000431,0.003643
12220000,0.0324,0.013523,0.002678,0.000431,0.003291
12221000,0.0324,0.013523,0.002678,0.000431,0.003408
12222000,0.0324,0.013523,0.002678,0.000431,0.003643
12223000,0.0324,0.013523,0.002678,0.000431,0.003291
12224000,0.0324,0.013523,0.002678,0.000431,0.003643
12225000,0.0324,0.013523,0.002678,0.000431,0.003643
12226000,0.0324,0.013523,0.002678,0.000431,0.003408
12227000,0.0324,0.013523,0.002678,0.000431,0.003408
12228000,0.0324,0.013523,0.002678,0.000431,0.003408
12229000,0.0324,0.013523,0.002678,0.000431,0.003643
12230000,0.0324,0.013523,0.002678,0.000431,0.003526
12231000,0.0324,0.013523,0.002678,0.000431,0.003408
12232000,0.0324,0.013523,0.002678,0.000431,0.003996
12233000,0.0324,0.013523,0.002678,0.000431,0.003291
12234000,0.0324,0.013523,0.002678,0.000431,0.003291
12235000,0.0324,0.013523,0.002678,0.000431,0.003996
12236000,0.0324,0.013523,0.002678,0.000431,0.003173
12237000,0.0324,0.013523,0.002678,0.000431,0.003526
12238000,0.0324,0.013523,0.002678,0.000431,0.003291
12239000,0.0324,0.013523,0.002678,0.000431,0.003878
12240000,0.0324,0.013523,0.002678,0.000431,0.003173
12241000,0.0324,0.013523,0.002678,0.000431,0.003526
12242000,0.0324,0.013523,0.002678,0.000431,0.003761
12243000,0.0324,0.013523,0.002678,0.000431,0.003526
12244000,0.0324,0.013523,0.002678,0.000431,0.002938
12245000,0.0324,0.013523,0.002678,0.000431,0.003996
12246000,0.0324,0.013523,0.002678,0.000431,0.003408
12247000,0.0324,0.013523,0.002678,0.000431,0.003643
12248000,0.0324,0.013523,0.002678,0.000431,0.003173
12249000,0.0324,0.013523,0.002678,0.000431,0.003761
12250000,0.0324,0.013523,0.002678,0.000431,0.003526
12251000,0.0324,0.013523,0.002678,0.000431,0.003291
12252000,0.0324,0.013523,0.002678,0.000431,0.003526
12253000,0.0324,0.013523,0.002678,0.000431,0.003878
12254000,0.0324,0.013523,0.002678,0.000431,0.003291
12255000,0.0324,0.013523,0.002678,0.000431,0.003761
12256000,0.0324,0.013523,0.002678,0.000431,0.004113
12257000,0.0324,0.013523,0.002678,0.000431,0.002938
12258000,0.0324,0.013523,0.002678,0.000431,0.003996
12259000,0.0324,0.013523,0.002678,0.000431,0.003761
12260000,0.0324,0.013523,0.002678,0.000431,0.003408
12261000,0.0324,0.013523,0.002678,0.000431,0.003173
12262000,0.0324,0.013523,0.002678,0.000431,0.003878
12263000,0.0324,0.013523,0.002678,0.000431,0.003643
12264000,0.0324,0.013523,0.002678,0.000431,0.003761
12265000,0.0324,0.013523,0.002678,0.000431,0.002938
12266000,0.0324,0.013523,0.002678,0.000431,0.003996
12267000,0.0324,0.013523,0.002678,0.000431,0.003643
12268000,0.0324,0.013523,0.002678,0.000431,0.003408
12269000,0.0324,0.013523,0.002678,0.000431,0.003408
12270000,0.0324,0.013523,0.002678,0.000431,0.003996
12271000,0.0324,0.013523,0.002678,0.000431,0.003056
12272000,0.0324,0.013523,0.002678,0.000431,0.003526
12273000,0.0324,0.013523,0.002678,0.000431,0.003643
12274000,0.0324,0.013523,0.002678,0.000431,0.003408
12275000,0.0324,0.013523,0.002678,0.000431,0.003526
12276000,0.0324,0.013523,0.002678,0.000431,0.003643
12277000,0.0324,0.013523,0.002678,0.000431,0.003761
12278000,0.0324,0.013523,0.002678,0.000431,0.003291
12279000,0.0324,0.013523,0.002678,0.000431,0.003173
12280000,0.0324,0.013523,0.002678,0.000431,0.003761
12281000,0.0324,0.013523,0.002678,0.000431,0.003291
12282000,0.0324,0.013523,0.002678,0.000431,0.003173
12283000,0.0324,0.013523,0.002678,0.000431,0.003761
12284000,0.0324,0.013523,0.002678,0.000431,0.003056
12285000,0.0324,0.013523,0.002678,0.000431,0.003526
12286000,0.0324,0.013523,0.002678,0.000431,0.003408
12287000,0.0324,0.013523,0.002678,0.000431,0.003996
12288000,0.0324,0.013523,0.002678,0.000431,0.003526
12289000,0.0324,0.013523,0.002678,0.000431,0.003291
12290000,0.0324,0.013523,0.002678,0.000431,0.003761
12291000,0.0324,0.013523,0.002678,0.000431,0.003761
12292000,0.0324,0.013523,0.002678,0.000431,0.002586
12293000,0.0324,0.013523,0.002678,0.000431,0.004231
12294000,0.0324,0.013523,0.002678,0.000431,0.003291
12295000,0.0324,0.013523,0.002678,0.000431,0.003408
12296000,0.0324,0.013523,0.002678,0.000431,0.003643
12297000,0.0324,0.013523,0.002678,0.000431,0.003643
12298000,0.0324,0.013523,0.002678,0.000431,0.003643
12299000,0.0324,0.013523,0.002678,0.000431,0.003408
12300000,0.0324,0.013523,0.002678,0.000431,0.003643
12301000,0.0324,0.013523,0.002678,0.000431,0.003996
12302000,0.0324,0.013523,0.002678,0.000431,0.003291
12303000,0.0324,0.013523,0.002678,0.000431,0.003291
12304000,0.0324,0.013523,0.002678,0.000431,0.003761
12305000,0.0324,0.013523,0.002678,0.000431,0.003408
12306000,0.0324,0.013523,0.002678,0.000431,0.003291
12307000,0.0324,0.013523,0.002678,0.000431,0.003878
12308000,0.0324,0.013523,0.002678,0.000431,0.003996
12309000,0.0324,0.013523,0.002678,0.000431,0.003291
12310000,0.0324,0.013523,0.002678,0.000431,0.003761
12311000,0.0324,0.013523,0.002678,0.000431,0.003526
12312000,0.0324,0.013523,0.002678,0.000431,0.003761
12313000,0.0324,0.013523,0.002678,0.000431,0.003291
12314000,0.0324,0.013523,0.002678,0.000431,0.003761
12315000,0.0324,0.013523,0.002678,0.000431,0.002938
12316000,0.0324,0.013523,0.002678,0.000431,0.003643
12317000,0.0324,0.013523,0.002678,0.000431,0.003408
12318000,0.0324,0.013523,0.002678,0.000431,0.003643
12319000,0.0324,0.013523,0.002678,0.000431,0.003291
12320000,0.0324,0.013523,0.002678,0.000431,0.003408
12321000,0.0324,0.013523,0.002678,0.000431,0.003408
12322000,0.0324,0.013523,0.002678,0.000431,0.003526
12323000,0.0324,0.013523,0.002678,0.000431,0.002821
12324000,0.0324,0.013523,0.002678,0.000431,0.003408
12325000,0.0324,0.013523,0.002678,0.000431,0.003408
12326000,0.0324,0.013523,0.002678,0.000431,0.003408
12327000,0.0324,0.013523,0.002678,0.000431,0.003291
12328000,0.0324,0.013523,0.002678,0.000431,0.003056
12329000,0.0324,0.013523,0.002678,0.000431,0.003643
12330000,0.0324,0.013523,0.002678,0.000431,0.002821
12331000,0.0324,0.013523,0.002678,0.000431,0.003761
12332000,0.0324,0.013523,0.002678,0.000431,0.003526
12333000,0.0324,0.013523,0.002678,0.000431,0.003526
12334000,0.0324,0.013523,0.002678,0.000431,0.003173
12335000,0.0324,0.013523,0.002678,0.000431,0.003761
12336000,0.0324,0.013523,0.002678,0.000431,0.003173
12337000,0.0324,0.013523,0.002678,0.000431,0.003878
12338000,0.0324,0.013523,0.002678,0.000431,0.003173
12339000,0.0324,0.013523,0.002678,0.000431,0.003878
12340000,0.0324,0.013523,0.002678,0.000431,0.003643
12341000,0.0324,0.013523,0.002678,0.000431,0.003291
12342000,0.0324,0.013523,0.002678,0.000431,0.002938
12343000,0.0324,0.013523,0.002678,0.000431,0.003643
12344000,0.0324,0.013523,0.002678,0.000431,0.002821
12345000,0.0324,0.013523,0.002678,0.000431,0.004113
12346000,0.0324,0.013523,0.002678,0.000431,0.002821
12347000,0.0324,0.013523,0.002678,0.000431,0.003761
12348000,0.0324,0.013523,0.002678,0.000431,0.003408
12349000,0.0324,0.013523,0.002678,0.000431,0.003761
12350000,0.0324,0.013523,0.002678,0.000431,0.003291
12351000,0.0324,0.013523,0.002678,0.000431,0.003643
12352000,0.0324,0.013523,0.002678,0.000431,0.003408
12353000,0.0324,0.013523,0.002678,0.000431,0.003291
12354000,0.0324,0.013523,0.002678,0.000431,0.003643
12355000,0.0324,0.013523,0.002678,0.000431,0.003526
12356000,0.0324,0.013523,0.002678,0.000431,0.003526
12357000,0.0324,0.013523,0.002678,0.000431,0.003408
12358000,0.0324,0.013523,0.002678,0.000431,0.003408
12359000,0.0324,0.013523,0.002678,0.000431,0.003408
12360000,0.0324,0.013523,0.002678,0.000431,0.003408
12361000,0.0324,0.013523,0.002678,0.000431,0.003173
12362000,0.0324,0.013523,0.002678,0.000431,0.003761
12363000,0.0324,0.013523,0.002678,0.000431,0.003173
12364000,0.0324,0.013523,0.002678,0.000431,0.003173
12365000,0.0324,0.013523,0.002678,0.000431,0.003526
12366000,0.0324,0.013523,0.002678,0.000431,0.003878
12367000,0.0324,0.013523,0.002678,0.000431,0.003173
12368000,0.0324,0.013523,0.002678,0.000431,0.003878
12369000,0.0324,0.013523,0.002678,0.000431,0.003291
12370000,0.0324,0.013523,0.002678,0.000431,0.003878
12371000,0.0324,0.013523,0.002678,0.000431,0.003173
12372000,0.0324,0.013523,0.002678,0.000431,0.003643
12373000,0.0324,0.013523,0.002678,0.000431,0.003291
12374000,0.0324,0.013523,0.002678,0.000431,0.003526
12375000,0.0324,0.013523,0.002678,0.000431,0.003878
12376000,0.0324,0.013523,0.002678,0.000431,0.003761
12377000,0.0324,0.013523,0.002678,0.000431,0.003526
12378000,0.0324,0.013523,0.002678,0.000431,0.003056
12379000,0.0324,0.013523,0.002678,0.000431,0.003761
12380000,0.0324,0.013523,0.002678,0.000431,0.003526
12381000,0.0324,0.013523,0.002678,0.000431,0.003526
