Cycle,Area(mm^2),PeakDynamic(W),SubthresholdLeakage(W),GateLeakage(W),RunTimeDynamic(W)
4000000,0.0324,0.013523,0.002678,0.000431,0.007992
4001000,0.0324,0.013523,0.002678,0.000431,0.007169
4002000,0.0324,0.013523,0.002678,0.000431,0.007404
4003000,0.0324,0.013523,0.002678,0.000431,0.007169
4004000,0.0324,0.013523,0.002678,0.000431,0.007757
4005000,0.0324,0.013523,0.002678,0.000431,0.007757
4006000,0.0324,0.013523,0.002678,0.000431,0.007287
4007000,0.0324,0.013523,0.002678,0.000431,0.007639
4008000,0.0324,0.013523,0.002678,0.000431,0.007052
4009000,0.0324,0.013523,0.002678,0.000431,0.007639
4010000,0.0324,0.013523,0.002678,0.000431,0.007287
4011000,0.0324,0.013523,0.002678,0.000431,0.007522
4012000,0.0324,0.013523,0.002678,0.000431,0.007169
4013000,0.0324,0.013523,0.002678,0.000431,0.007169
4014000,0.0324,0.013523,0.002678,0.000431,0.007522
4015000,0.0324,0.013523,0.002678,0.000431,0.006934
4016000,0.0324,0.013523,0.002678,0.000431,0.007992
4017000,0.0324,0.013523,0.002678,0.000431,0.007169
4018000,0.0324,0.013523,0.002678,0.000431,0.006934
4019000,0.0324,0.013523,0.002678,0.000431,0.007874
4020000,0.0324,0.013523,0.002678,0.000431,0.007522
4021000,0.0324,0.013523,0.002678,0.000431,0.007052
4022000,0.0324,0.013523,0.002678,0.000431,0.007992
4023000,0.0324,0.013523,0.002678,0.000431,0.007522
4024000,0.0324,0.013523,0.002678,0.000431,0.007522
4025000,0.0324,0.013523,0.002678,0.000431,0.007522
4026000,0.0324,0.013523,0.002678,0.000431,0.007639
4027000,0.0324,0.013523,0.002678,0.000431,0.007757
4028000,0.0324,0.013523,0.002678,0.000431,0.007992
4029000,0.0324,0.013523,0.002678,0.000431,0.007639
4030000,0.0324,0.013523,0.002678,0.000431,0.007522
4031000,0.0324,0.013523,0.002678,0.000431,0.007287
4032000,0.0324,0.013523,0.002678,0.000431,0.007169
4033000,0.0324,0.013523,0.002678,0.000431,0.007404
4034000,0.0324,0.013523,0.002678,0.000431,0.007639
4035000,0.0324,0.013523,0.002678,0.000431,0.007757
4036000,0.0324,0.013523,0.002678,0.000431,0.007169
4037000,0.0324,0.013523,0.002678,0.000431,0.007052
4038000,0.0324,0.013523,0.002678,0.000431,0.007639
4039000,0.0324,0.013523,0.002678,0.000431,0.007757
4040000,0.0324,0.013523,0.002678,0.000431,0.007404
4041000,0.0324,0.013523,0.002678,0.000431,0.007169
4042000,0.0324,0.013523,0.002678,0.000431,0.007992
4043000,0.0324,0.013523,0.002678,0.000431,0.007522
4044000,0.0324,0.013523,0.002678,0.000431,0.007639
4045000,0.0324,0.013523,0.002678,0.000431,0.007169
4046000,0.0324,0.013523,0.002678,0.000431,0.007522
4047000,0.0324,0.013523,0.002678,0.000431,0.007757
4048000,0.0324,0.013523,0.002678,0.000431,0.007522
4049000,0.0324,0.013523,0.002678,0.000431,0.007404
4050000,0.0324,0.013523,0.002678,0.000431,0.007639
4051000,0.0324,0.013523,0.002678,0.000431,0.006699
4052000,0.0324,0.013523,0.002678,0.000431,0.006817
4053000,0.0324,0.013523,0.002678,0.000431,0.006934
4054000,0.0324,0.013523,0.002678,0.000431,0.006934
4055000,0.0324,0.013523,0.002678,0.000431,0.007052
4056000,0.0324,0.013523,0.002678,0.000431,0.006582
4057000,0.0324,0.013523,0.002678,0.000431,0.006699
4058000,0.0324,0.013523,0.002678,0.000431,0.007522
4059000,0.0324,0.013523,0.002678,0.000431,0.006464
4060000,0.0324,0.013523,0.002678,0.000431,0.006934
4061000,0.0324,0.013523,0.002678,0.000431,0.006699
4062000,0.0324,0.013523,0.002678,0.000431,0.006817
4063000,0.0324,0.013523,0.002678,0.000431,0.006699
4064000,0.0324,0.013523,0.002678,0.000431,0.006934
4065000,0.0324,0.013523,0.002678,0.000431,0.007052
4066000,0.0324,0.013523,0.002678,0.000431,0.006934
4067000,0.0324,0.013523,0.002678,0.000431,0.007169
4068000,0.0324,0.013523,0.002678,0.000431,0.006817
4069000,0.0324,0.013523,0.002678,0.000431,0.006817
4070000,0.0324,0.013523,0.002678,0.000431,0.006699
4071000,0.0324,0.013523,0.002678,0.000431,0.007169
4072000,0.0324,0.013523,0.002678,0.000431,0.006699
4073000,0.0324,0.013523,0.002678,0.000431,0.007169
4074000,0.0324,0.013523,0.002678,0.000431,0.006464
4075000,0.0324,0.013523,0.002678,0.000431,0.006699
4076000,0.0324,0.013523,0.002678,0.000431,0.006817
4077000,0.0324,0.013523,0.002678,0.000431,0.006817
4078000,0.0324,0.013523,0.002678,0.000431,0.006699
4079000,0.0324,0.013523,0.002678,0.000431,0.006817
4080000,0.0324,0.013523,0.002678,0.000431,0.007169
4081000,0.0324,0.013523,0.002678,0.000431,0.007052
4082000,0.0324,0.013523,0.002678,0.000431,0.006699
4083000,0.0324,0.013523,0.002678,0.000431,0.007052
4084000,0.0324,0.013523,0.002678,0.000431,0.006817
4085000,0.0324,0.013523,0.002678,0.000431,0.007169
4086000,0.0324,0.013523,0.002678,0.000431,0.007052
4087000,0.0324,0.013523,0.002678,0.000431,0.006582
4088000,0.0324,0.013523,0.002678,0.000431,0.006699
4089000,0.0324,0.013523,0.002678,0.000431,0.006582
4090000,0.0324,0.013523,0.002678,0.000431,0.006817
4091000,0.0324,0.013523,0.002678,0.000431,0.006934
4092000,0.0324,0.013523,0.002678,0.000431,0.006934
4093000,0.0324,0.013523,0.002678,0.000431,0.006464
4094000,0.0324,0.013523,0.002678,0.000431,0.007052
4095000,0.0324,0.013523,0.002678,0.000431,0.006817
4096000,0.0324,0.013523,0.002678,0.000431,0.006934
4097000,0.0324,0.013523,0.002678,0.000431,0.007169
4098000,0.0324,0.013523,0.002678,0.000431,0.006817
4099000,0.0324,0.013523,0.002678,0.000431,0.006582
4100000,0.0324,0.013523,0.002678,0.000431,0.007169
4101000,0.0324,0.013523,0.002678,0.000431,0.007522
4102000,0.0324,0.013523,0.002678,0.000431,0.006229
4103000,0.0324,0.013523,0.002678,0.000431,0.006934
4104000,0.0324,0.013523,0.002678,0.000431,0.006229
4105000,0.0324,0.013523,0.002678,0.000431,0.007404
4106000,0.0324,0.013523,0.002678,0.000431,0.006934
4107000,0.0324,0.013523,0.002678,0.000431,0.006934
4108000,0.0324,0.013523,0.002678,0.000431,0.006464
4109000,0.0324,0.013523,0.002678,0.000431,0.006934
4110000,0.0324,0.013523,0.002678,0.000431,0.007052
4111000,0.0324,0.013523,0.002678,0.000431,0.006464
4112000,0.0324,0.013523,0.002678,0.000431,0.007052
4113000,0.0324,0.013523,0.002678,0.000431,0.007052
4114000,0.0324,0.013523,0.002678,0.000431,0.006582
4115000,0.0324,0.013523,0.002678,0.000431,0.006464
4116000,0.0324,0.013523,0.002678,0.000431,0.007169
4117000,0.0324,0.013523,0.002678,0.000431,0.006582
4118000,0.0324,0.013523,0.002678,0.000431,0.007052
4119000,0.0324,0.013523,0.002678,0.000431,0.006347
4120000,0.0324,0.013523,0.002678,0.000431,0.007052
4121000,0.0324,0.013523,0.002678,0.000431,0.007052
4122000,0.0324,0.013523,0.002678,0.000431,0.006229
4123000,0.0324,0.013523,0.002678,0.000431,0.007287
4124000,0.0324,0.013523,0.002678,0.000431,0.007287
4125000,0.0324,0.013523,0.002678,0.000431,0.007169
4126000,0.0324,0.013523,0.002678,0.000431,0.007052
4127000,0.0324,0.013523,0.002678,0.000431,0.006934
4128000,0.0324,0.013523,0.002678,0.000431,0.006582
4129000,0.0324,0.013523,0.002678,0.000431,0.006934
4130000,0.0324,0.013523,0.002678,0.000431,0.006699
4131000,0.0324,0.013523,0.002678,0.000431,0.007052
4132000,0.0324,0.013523,0.002678,0.000431,0.006817
4133000,0.0324,0.013523,0.002678,0.000431,0.006817
4134000,0.0324,0.013523,0.002678,0.000431,0.007404
4135000,0.0324,0.013523,0.002678,0.000431,0.006817
4136000,0.0324,0.013523,0.002678,0.000431,0.006699
4137000,0.0324,0.013523,0.002678,0.000431,0.006464
4138000,0.0324,0.013523,0.002678,0.000431,0.006934
4139000,0.0324,0.013523,0.002678,0.000431,0.006699
4140000,0.0324,0.013523,0.002678,0.000431,0.007169
4141000,0.0324,0.013523,0.002678,0.000431,0.006817
4142000,0.0324,0.013523,0.002678,0.000431,0.006934
4143000,0.0324,0.013523,0.002678,0.000431,0.006699
4144000,0.0324,0.013523,0.002678,0.000431,0.006934
4145000,0.0324,0.013523,0.002678,0.000431,0.007287
4146000,0.0324,0.013523,0.002678,0.000431,0.006934
4147000,0.0324,0.013523,0.002678,0.000431,0.006582
4148000,0.0324,0.013523,0.002678,0.000431,0.007287
4149000,0.0324,0.013523,0.002678,0.000431,0.007052
4150000,0.0324,0.013523,0.002678,0.000431,0.007052
4151000,0.0324,0.013523,0.002678,0.000431,0.006934
4152000,0.0324,0.013523,0.002678,0.000431,0.006582
4153000,0.0324,0.013523,0.002678,0.000431,0.007287
4154000,0.0324,0.013523,0.002678,0.000431,0.007522
4155000,0.0324,0.013523,0.002678,0.000431,0.006699
4156000,0.0324,0.013523,0.002678,0.000431,0.007287
4157000,0.0324,0.013523,0.002678,0.000431,0.006464
4158000,0.0324,0.013523,0.002678,0.000431,0.006934
4159000,0.0324,0.013523,0.002678,0.000431,0.006934
4160000,0.0324,0.013523,0.002678,0.000431,0.007169
4161000,0.0324,0.013523,0.002678,0.000431,0.007052
4162000,0.0324,0.013523,0.002678,0.000431,0.007052
4163000,0.0324,0.013523,0.002678,0.000431,0.005994
4164000,0.0324,0.013523,0.002678,0.000431,0.007052
4165000,0.0324,0.013523,0.002678,0.000431,0.006934
4166000,0.0324,0.013523,0.002678,0.000431,0.006582
4167000,0.0324,0.013523,0.002678,0.000431,0.006582
4168000,0.0324,0.013523,0.002678,0.000431,0.006347
4169000,0.0324,0.013523,0.002678,0.000431,0.006111
4170000,0.0324,0.013523,0.002678,0.000431,0.006347
4171000,0.0324,0.013523,0.002678,0.000431,0.005994
4172000,0.0324,0.013523,0.002678,0.000431,0.006347
4173000,0.0324,0.013523,0.002678,0.000431,0.006582
4174000,0.0324,0.013523,0.002678,0.000431,0.006229
4175000,0.0324,0.013523,0.002678,0.000431,0.006347
4176000,0.0324,0.013523,0.002678,0.000431,0.006582
4177000,0.0324,0.013523,0.002678,0.000431,0.006582
4178000,0.0324,0.013523,0.002678,0.000431,0.005876
4179000,0.0324,0.013523,0.002678,0.000431,0.006229
4180000,0.0324,0.013523,0.002678,0.000431,0.006229
4181000,0.0324,0.013523,0.002678,0.000431,0.006229
4182000,0.0324,0.013523,0.002678,0.000431,0.006111
4183000,0.0324,0.013523,0.002678,0.000431,0.006347
4184000,0.0324,0.013523,0.002678,0.000431,0.005876
4185000,0.0324,0.013523,0.002678,0.000431,0.005524
4186000,0.0324,0.013523,0.002678,0.000431,0.006464
4187000,0.0324,0.013523,0.002678,0.000431,0.006229
4188000,0.0324,0.013523,0.002678,0.000431,0.005994
4189000,0.0324,0.013523,0.002678,0.000431,0.006229
4190000,0.0324,0.013523,0.002678,0.000431,0.006229
4191000,0.0324,0.013523,0.002678,0.000431,0.006464
4192000,0.0324,0.013523,0.002678,0.000431,0.005994
4193000,0.0324,0.013523,0.002678,0.000431,0.006111
4194000,0.0324,0.013523,0.002678,0.000431,0.005289
4195000,0.0324,0.013523,0.002678,0.000431,0.005994
4196000,0.0324,0.013523,0.002678,0.000431,0.006464
4197000,0.0324,0.013523,0.002678,0.000431,0.006347
4198000,0.0324,0.013523,0.002678,0.000431,0.006347
4199000,0.0324,0.013523,0.002678,0.000431,0.006111
4200000,0.0324,0.013523,0.002678,0.000431,0.005876
4201000,0.0324,0.013523,0.002678,0.000431,0.006229
4202000,0.0324,0.013523,0.002678,0.000431,0.006347
4203000,0.0324,0.013523,0.002678,0.000431,0.006229
4204000,0.0324,0.013523,0.002678,0.000431,0.005994
4205000,0.0324,0.013523,0.002678,0.000431,0.006464
4206000,0.0324,0.013523,0.002678,0.000431,0.006111
4207000,0.0324,0.013523,0.002678,0.000431,0.006229
4208000,0.0324,0.013523,0.002678,0.000431,0.005994
4209000,0.0324,0.013523,0.002678,0.000431,0.006347
4210000,0.0324,0.013523,0.002678,0.000431,0.005994
4211000,0.0324,0.013523,0.002678,0.000431,0.006229
4212000,0.0324,0.013523,0.002678,0.000431,0.005759
4213000,0.0324,0.013523,0.002678,0.000431,0.006347
4214000,0.0324,0.013523,0.002678,0.000431,0.005876
4215000,0.0324,0.013523,0.002678,0.000431,0.005759
4216000,0.0324,0.013523,0.002678,0.000431,0.006229
4217000,0.0324,0.013523,0.002678,0.000431,0.005289
4218000,0.0324,0.013523,0.002678,0.000431,0.006464
4219000,0.0324,0.013523,0.002678,0.000431,0.006464
4220000,0.0324,0.013523,0.002678,0.000431,0.005994
4221000,0.0324,0.013523,0.002678,0.000431,0.005759
4222000,0.0324,0.013523,0.002678,0.000431,0.006229
4223000,0.0324,0.013523,0.002678,0.000431,0.006464
4224000,0.0324,0.013523,0.002678,0.000431,0.006111
4225000,0.0324,0.013523,0.002678,0.000431,0.006464
4226000,0.0324,0.013523,0.002678,0.000431,0.006229
4227000,0.0324,0.013523,0.002678,0.000431,0.005759
4228000,0.0324,0.013523,0.002678,0.000431,0.006464
4229000,0.0324,0.013523,0.002678,0.000431,0.006111
4230000,0.0324,0.013523,0.002678,0.000431,0.006347
4231000,0.0324,0.013523,0.002678,0.000431,0.006582
4232000,0.0324,0.013523,0.002678,0.000431,0.006464
4233000,0.0324,0.013523,0.002678,0.000431,0.006347
4234000,0.0324,0.013523,0.002678,0.000431,0.006229
4235000,0.0324,0.013523,0.002678,0.000431,0.006229
4236000,0.0324,0.013523,0.002678,0.000431,0.006582
4237000,0.0324,0.013523,0.002678,0.000431,0.005994
4238000,0.0324,0.013523,0.002678,0.000431,0.006699
4239000,0.0324,0.013523,0.002678,0.000431,0.006347
4240000,0.0324,0.013523,0.002678,0.000431,0.006111
4241000,0.0324,0.013523,0.002678,0.000431,0.005876
4242000,0.0324,0.013523,0.002678,0.000431,0.006582
4243000,0.0324,0.013523,0.002678,0.000431,0.006582
4244000,0.0324,0.013523,0.002678,0.000431,0.006229
4245000,0.0324,0.013523,0.002678,0.000431,0.006347
4246000,0.0324,0.013523,0.002678,0.000431,0.005994
4247000,0.0324,0.013523,0.002678,0.000431,0.006347
4248000,0.0324,0.013523,0.002678,0.000431,0.006111
4249000,0.0324,0.013523,0.002678,0.000431,0.006464
4250000,0.0324,0.013523,0.002678,0.000431,0.005641
4251000,0.0324,0.013523,0.002678,0.000431,0.006464
4252000,0.0324,0.013523,0.002678,0.000431,0.006111
4253000,0.0324,0.013523,0.002678,0.000431,0.006111
4254000,0.0324,0.013523,0.002678,0.000431,0.005876
4255000,0.0324,0.013523,0.002678,0.000431,0.006347
4256000,0.0324,0.013523,0.002678,0.000431,0.006229
4257000,0.0324,0.013523,0.002678,0.000431,0.006229
4258000,0.0324,0.013523,0.002678,0.000431,0.005994
4259000,0.0324,0.013523,0.002678,0.000431,0.006699
4260000,0.0324,0.013523,0.002678,0.000431,0.005994
4261000,0.0324,0.013523,0.002678,0.000431,0.006229
4262000,0.0324,0.013523,0.002678,0.000431,0.006699
4263000,0.0324,0.013523,0.002678,0.000431,0.005759
4264000,0.0324,0.013523,0.002678,0.000431,0.006111
4265000,0.0324,0.013523,0.002678,0.000431,0.006347
4266000,0.0324,0.013523,0.002678,0.000431,0.006347
4267000,0.0324,0.013523,0.002678,0.000431,0.006582
4268000,0.0324,0.013523,0.002678,0.000431,0.006817
4269000,0.0324,0.013523,0.002678,0.000431,0.006111
4270000,0.0324,0.013523,0.002678,0.000431,0.005994
4271000,0.0324,0.013523,0.002678,0.000431,0.006699
4272000,0.0324,0.013523,0.002678,0.000431,0.005994
4273000,0.0324,0.013523,0.002678,0.000431,0.006464
4274000,0.0324,0.013523,0.002678,0.000431,0.006229
4275000,0.0324,0.013523,0.002678,0.000431,0.005876
4276000,0.0324,0.013523,0.002678,0.000431,0.005759
4277000,0.0324,0.013523,0.002678,0.000431,0.006582
4278000,0.0324,0.013523,0.002678,0.000431,0.005524
4279000,0.0324,0.013523,0.002678,0.000431,0.005641
4280000,0.0324,0.013523,0.002678,0.000431,0.005876
4281000,0.0324,0.013523,0.002678,0.000431,0.005406
4282000,0.0324,0.013523,0.002678,0.000431,0.005171
4283000,0.0324,0.013523,0.002678,0.000431,0.005876
4284000,0.0324,0.013523,0.002678,0.000431,0.005641
4285000,0.0324,0.013523,0.002678,0.000431,0.005524
4286000,0.0324,0.013523,0.002678,0.000431,0.005994
4287000,0.0324,0.013523,0.002678,0.000431,0.005759
4288000,0.0324,0.013523,0.002678,0.000431,0.005289
4289000,0.0324,0.013523,0.002678,0.000431,0.005876
4290000,0.0324,0.013523,0.002678,0.000431,0.005641
4291000,0.0324,0.013523,0.002678,0.000431,0.005641
4292000,0.0324,0.013523,0.002678,0.000431,0.005054
4293000,0.0324,0.013523,0.002678,0.000431,0.005641
4294000,0.0324,0.013523,0.002678,0.000431,0.006111
4295000,0.0324,0.013523,0.002678,0.000431,0.005524
4296000,0.0324,0.013523,0.002678,0.000431,0.005406
4297000,0.0324,0.013523,0.002678,0.000431,0.005994
4298000,0.0324,0.013523,0.002678,0.000431,0.005759
4299000,0.0324,0.013523,0.002678,0.000431,0.004936
4300000,0.0324,0.013523,0.002678,0.000431,0.005406
4301000,0.0324,0.013523,0.002678,0.000431,0.005406
4302000,0.0324,0.013523,0.002678,0.000431,0.004701
4303000,0.0324,0.013523,0.002678,0.000431,0.005054
4304000,0.0324,0.013523,0.002678,0.000431,0.004819
4305000,0.0324,0.013523,0.002678,0.000431,0.004819
4306000,0.0324,0.013523,0.002678,0.000431,0.005054
4307000,0.0324,0.013523,0.002678,0.000431,0.005054
4308000,0.0324,0.013523,0.002678,0.000431,0.004466
4309000,0.0324,0.013523,0.002678,0.000431,0.004584
4310000,0.0324,0.013523,0.002678,0.000431,0.004701
4311000,0.0324,0.013523,0.002678,0.000431,0.004936
4312000,0.0324,0.013523,0.002678,0.000431,0.004701
4313000,0.0324,0.013523,0.002678,0.000431,0.004936
4314000,0.0324,0.013523,0.002678,0.000431,0.004466
4315000,0.0324,0.013523,0.002678,0.000431,0.004936
4316000,0.0324,0.013523,0.002678,0.000431,0.004819
4317000,0.0324,0.013523,0.002678,0.000431,0.004584
4318000,0.0324,0.013523,0.002678,0.000431,0.004936
4319000,0.0324,0.013523,0.002678,0.000431,0.004584
4320000,0.0324,0.013523,0.002678,0.000431,0.004584
4321000,0.0324,0.013523,0.002678,0.000431,0.005054
4322000,0.0324,0.013523,0.002678,0.000431,0.004936
4323000,0.0324,0.013523,0.002678,0.000431,0.004936
4324000,0.0324,0.013523,0.002678,0.000431,0.004936
4325000,0.0324,0.013523,0.002678,0.000431,0.004584
4326000,0.0324,0.013523,0.002678,0.000431,0.004584
4327000,0.0324,0.013523,0.002678,0.000431,0.004584
4328000,0.0324,0.013523,0.002678,0.000431,0.004819
4329000,0.0324,0.013523,0.002678,0.000431,0.004701
4330000,0.0324,0.013523,0.002678,0.000431,0.005054
4331000,0.0324,0.013523,0.002678,0.000431,0.005171
4332000,0.0324,0.013523,0.002678,0.000431,0.004819
4333000,0.0324,0.013523,0.002678,0.000431,0.004819
4334000,0.0324,0.013523,0.002678,0.000431,0.004819
4335000,0.0324,0.013523,0.002678,0.000431,0.005054
4336000,0.0324,0.013523,0.002678,0.000431,0.004936
4337000,0.0324,0.013523,0.002678,0.000431,0.005054
4338000,0.0324,0.013523,0.002678,0.000431,0.004936
4339000,0.0324,0.013523,0.002678,0.000431,0.004819
4340000,0.0324,0.013523,0.002678,0.000431,0.005289
4341000,0.0324,0.013523,0.002678,0.000431,0.004584
4342000,0.0324,0.013523,0.002678,0.000431,0.004231
4343000,0.0324,0.013523,0.002678,0.000431,0.005171
4344000,0.0324,0.013523,0.002678,0.000431,0.004936
4345000,0.0324,0.013523,0.002678,0.000431,0.004584
4346000,0.0324,0.013523,0.002678,0.000431,0.004936
4347000,0.0324,0.013523,0.002678,0.000431,0.005054
4348000,0.0324,0.013523,0.002678,0.000431,0.004701
4349000,0.0324,0.013523,0.002678,0.000431,0.005171
4350000,0.0324,0.013523,0.002678,0.000431,0.005054
4351000,0.0324,0.013523,0.002678,0.000431,0.004936
4352000,0.0324,0.013523,0.002678,0.000431,0.004701
4353000,0.0324,0.013523,0.002678,0.000431,0.005054
4354000,0.0324,0.013523,0.002678,0.000431,0.004936
4355000,0.0324,0.013523,0.002678,0.000431,0.004466
4356000,0.0324,0.013523,0.002678,0.000431,0.005171
4357000,0.0324,0.013523,0.002678,0.000431,0.004936
4358000,0.0324,0.013523,0.002678,0.000431,0.004819
4359000,0.0324,0.013523,0.002678,0.000431,0.004819
4360000,0.0324,0.013523,0.002678,0.000431,0.005406
4361000,0.0324,0.013523,0.002678,0.000431,0.004819
4362000,0.0324,0.013523,0.002678,0.000431,0.004701
4363000,0.0324,0.013523,0.002678,0.000431,0.004701
4364000,0.0324,0.013523,0.002678,0.000431,0.005171
4365000,0.0324,0.013523,0.002678,0.000431,0.004819
4366000,0.0324,0.013523,0.002678,0.000431,0.004819
4367000,0.0324,0.013523,0.002678,0.000431,0.004819
4368000,0.0324,0.013523,0.002678,0.000431,0.004819
4369000,0.0324,0.013523,0.002678,0.000431,0.005054
4370000,0.0324,0.013523,0.002678,0.000431,0.004819
4371000,0.0324,0.013523,0.002678,0.000431,0.004584
4372000,0.0324,0.013523,0.002678,0.000431,0.004819
4373000,0.0324,0.013523,0.002678,0.000431,0.004701
4374000,0.0324,0.013523,0.002678,0.000431,0.005289
4375000,0.0324,0.013523,0.002678,0.000431,0.004936
4376000,0.0324,0.013523,0.002678,0.000431,0.005054
4377000,0.0324,0.013523,0.002678,0.000431,0.004936
4378000,0.0324,0.013523,0.002678,0.000431,0.004701
4379000,0.0324,0.013523,0.002678,0.000431,0.004936
4380000,0.0324,0.013523,0.002678,0.000431,0.004819
4381000,0.0324,0.013523,0.002678,0.000431,0.004819
4382000,0.0324,0.013523,0.002678,0.000431,0.005054
4383000,0.0324,0.013523,0.002678,0.000431,0.004936
4384000,0.0324,0.013523,0.002678,0.000431,0.004936
4385000,0.0324,0.013523,0.002678,0.000431,0.005054
4386000,0.0324,0.013523,0.002678,0.000431,0.004819
4387000,0.0324,0.013523,0.002678,0.000431,0.004936
4388000,0.0324,0.013523,0.002678,0.000431,0.004819
4389000,0.0324,0.013523,0.002678,0.000431,0.005054
