Cycle,Area(mm^2),PeakDynamic(W),SubthresholdLeakage(W),GateLeakage(W),RunTimeDynamic(W)
78000000,0.0324,0.013523,0.002678,0.000431,0.037021
78001000,0.0324,0.013523,0.002678,0.000431,0.031615
78002000,0.0324,0.013523,0.002678,0.000431,0.032555
78003000,0.0324,0.013523,0.002678,0.000431,0.027384
78004000,0.0324,0.013523,0.002678,0.000431,0.029852
78005000,0.0324,0.013523,0.002678,0.000431,0.027854
78006000,0.0324,0.013523,0.002678,0.000431,0.029029
78007000,0.0324,0.013523,0.002678,0.000431,0.021508
78008000,0.0324,0.013523,0.002678,0.000431,0.020450
78009000,0.0324,0.013523,0.002678,0.000431,0.024446
78010000,0.0324,0.013523,0.002678,0.000431,0.019157
78011000,0.0324,0.013523,0.002678,0.000431,0.017277
78012000,0.0324,0.013523,0.002678,0.000431,0.018334
78013000,0.0324,0.013523,0.002678,0.000431,0.017394
78014000,0.0324,0.013523,0.002678,0.000431,0.017042
78015000,0.0324,0.013523,0.002678,0.000431,0.015044
78016000,0.0324,0.013523,0.002678,0.000431,0.014691
78017000,0.0324,0.013523,0.002678,0.000431,0.013398
78018000,0.0324,0.013523,0.002678,0.000431,0.014221
78019000,0.0324,0.013523,0.002678,0.000431,0.013281
78020000,0.0324,0.013523,0.002678,0.000431,0.015044
78021000,0.0324,0.013523,0.002678,0.000431,0.012693
78022000,0.0324,0.013523,0.002678,0.000431,0.012693
78023000,0.0324,0.013523,0.002678,0.000431,0.012458
78024000,0.0324,0.013523,0.002678,0.000431,0.013163
78025000,0.0324,0.013523,0.002678,0.000431,0.013986
78026000,0.0324,0.013523,0.002678,0.000431,0.013516
78027000,0.0324,0.013523,0.002678,0.000431,0.008580
78028000,0.0324,0.013523,0.002678,0.000431,0.008227
78029000,0.0324,0.013523,0.002678,0.000431,0.008580
78030000,0.0324,0.013523,0.002678,0.000431,0.010695
78031000,0.0324,0.013523,0.002678,0.000431,0.007639
78032000,0.0324,0.013523,0.002678,0.000431,0.007522
78033000,0.0324,0.013523,0.002678,0.000431,0.010695
78034000,0.0324,0.013523,0.002678,0.000431,0.005171
78035000,0.0324,0.013523,0.002678,0.000431,0.004819
78036000,0.0324,0.013523,0.002678,0.000431,0.005171
78037000,0.0324,0.013523,0.002678,0.000431,0.005406
78038000,0.0324,0.013523,0.002678,0.000431,0.004701
78039000,0.0324,0.013523,0.002678,0.000431,0.005054
78040000,0.0324,0.013523,0.002678,0.000431,0.005054
78041000,0.0324,0.013523,0.002678,0.000431,0.005289
78042000,0.0324,0.013523,0.002678,0.000431,0.005171
78043000,0.0324,0.013523,0.002678,0.000431,0.005994
78044000,0.0324,0.013523,0.002678,0.000431,0.005054
78045000,0.0324,0.013523,0.002678,0.000431,0.004231
78046000,0.0324,0.013523,0.002678,0.000431,0.004231
78047000,0.0324,0.013523,0.002678,0.000431,0.003878
78048000,0.0324,0.013523,0.002678,0.000431,0.004231
78049000,0.0324,0.013523,0.002678,0.000431,0.004113
78050000,0.0324,0.013523,0.002678,0.000431,0.004466
78051000,0.0324,0.013523,0.002678,0.000431,0.003761
78052000,0.0324,0.013523,0.002678,0.000431,0.004466
78053000,0.0324,0.013523,0.002678,0.000431,0.003878
78054000,0.0324,0.013523,0.002678,0.000431,0.004349
78055000,0.0324,0.013523,0.002678,0.000431,0.005406
78056000,0.0324,0.013523,0.002678,0.000431,0.003173
78057000,0.0324,0.013523,0.002678,0.000431,0.003173
78058000,0.0324,0.013523,0.002678,0.000431,0.006464
78059000,0.0324,0.013523,0.002678,0.000431,0.002468
78060000,0.0324,0.013523,0.002678,0.000431,0.002821
78061000,0.0324,0.013523,0.002678,0.000431,0.001998
78062000,0.0324,0.013523,0.002678,0.000431,0.002703
78063000,0.0324,0.013523,0.002678,0.000431,0.002351
78064000,0.0324,0.013523,0.002678,0.000431,0.002586
78065000,0.0324,0.013523,0.002678,0.000431,0.002468
78066000,0.0324,0.013523,0.002678,0.000431,0.002233
78067000,0.0324,0.013523,0.002678,0.000431,0.002586
78068000,0.0324,0.013523,0.002678,0.000431,0.002586
78069000,0.0324,0.013523,0.002678,0.000431,0.002233
78070000,0.0324,0.013523,0.002678,0.000431,0.002468
78071000,0.0324,0.013523,0.002678,0.000431,0.002586
78072000,0.0324,0.013523,0.002678,0.000431,0.002233
78073000,0.0324,0.013523,0.002678,0.000431,0.002821
78074000,0.0324,0.013523,0.002678,0.000431,0.002233
78075000,0.0324,0.013523,0.002678,0.000431,0.002586
78076000,0.0324,0.013523,0.002678,0.000431,0.002116
78077000,0.0324,0.013523,0.002678,0.000431,0.002586
78078000,0.0324,0.013523,0.002678,0.000431,0.002586
78079000,0.0324,0.013523,0.002678,0.000431,0.002351
78080000,0.0324,0.013523,0.002678,0.000431,0.002703
78081000,0.0324,0.013523,0.002678,0.000431,0.002116
78082000,0.0324,0.013523,0.002678,0.000431,0.002703
78083000,0.0324,0.013523,0.002678,0.000431,0.002586
78084000,0.0324,0.013523,0.002678,0.000431,0.002116
78085000,0.0324,0.013523,0.002678,0.000431,0.002586
78086000,0.0324,0.013523,0.002678,0.000431,0.002468
78087000,0.0324,0.013523,0.002678,0.000431,0.002468
78088000,0.0324,0.013523,0.002678,0.000431,0.002351
78089000,0.0324,0.013523,0.002678,0.000431,0.002351
78090000,0.0324,0.013523,0.002678,0.000431,0.002586
78091000,0.0324,0.013523,0.002678,0.000431,0.002586
78092000,0.0324,0.013523,0.002678,0.000431,0.002233
78093000,0.0324,0.013523,0.002678,0.000431,0.002703
78094000,0.0324,0.013523,0.002678,0.000431,0.002351
78095000,0.0324,0.013523,0.002678,0.000431,0.002586
78096000,0.0324,0.013523,0.002678,0.000431,0.002233
78097000,0.0324,0.013523,0.002678,0.000431,0.002468
78098000,0.0324,0.013523,0.002678,0.000431,0.002586
78099000,0.0324,0.013523,0.002678,0.000431,0.002233
78100000,0.0324,0.013523,0.002678,0.000431,0.002821
78101000,0.0324,0.013523,0.002678,0.000431,0.002233
78102000,0.0324,0.013523,0.002678,0.000431,0.002586
78103000,0.0324,0.013523,0.002678,0.000431,0.002468
78104000,0.0324,0.013523,0.002678,0.000431,0.002233
78105000,0.0324,0.013523,0.002678,0.000431,0.002586
78106000,0.0324,0.013523,0.002678,0.000431,0.002586
78107000,0.0324,0.013523,0.002678,0.000431,0.002116
78108000,0.0324,0.013523,0.002678,0.000431,0.002586
78109000,0.0324,0.013523,0.002678,0.000431,0.002351
78110000,0.0324,0.013523,0.002678,0.000431,0.002586
78111000,0.0324,0.013523,0.002678,0.000431,0.002586
78112000,0.0324,0.013523,0.002678,0.000431,0.002116
78113000,0.0324,0.013523,0.002678,0.000431,0.002821
78114000,0.0324,0.013523,0.002678,0.000431,0.002116
78115000,0.0324,0.013523,0.002678,0.000431,0.002586
78116000,0.0324,0.013523,0.002678,0.000431,0.002586
78117000,0.0324,0.013523,0.002678,0.000431,0.002351
78118000,0.0324,0.013523,0.002678,0.000431,0.002468
78119000,0.0324,0.013523,0.002678,0.000431,0.002351
78120000,0.0324,0.013523,0.002678,0.000431,0.002703
78121000,0.0324,0.013523,0.002678,0.000431,0.002233
78122000,0.0324,0.013523,0.002678,0.000431,0.002586
78123000,0.0324,0.013523,0.002678,0.000431,0.002468
78124000,0.0324,0.013523,0.002678,0.000431,0.002468
78125000,0.0324,0.013523,0.002678,0.000431,0.002468
78126000,0.0324,0.013523,0.002678,0.000431,0.002351
78127000,0.0324,0.013523,0.002678,0.000431,0.002351
78128000,0.0324,0.013523,0.002678,0.000431,0.002586
78129000,0.0324,0.013523,0.002678,0.000431,0.002351
78130000,0.0324,0.013523,0.002678,0.000431,0.002351
78131000,0.0324,0.013523,0.002678,0.000431,0.002821
78132000,0.0324,0.013523,0.002678,0.000431,0.002116
78133000,0.0324,0.013523,0.002678,0.000431,0.002703
78134000,0.0324,0.013523,0.002678,0.000431,0.002233
78135000,0.0324,0.013523,0.002678,0.000431,0.002586
78136000,0.0324,0.013523,0.002678,0.000431,0.002586
78137000,0.0324,0.013523,0.002678,0.000431,0.002233
78138000,0.0324,0.013523,0.002678,0.000431,0.002468
78139000,0.0324,0.013523,0.002678,0.000431,0.002586
78140000,0.0324,0.013523,0.002678,0.000431,0.002468
78141000,0.0324,0.013523,0.002678,0.000431,0.002468
78142000,0.0324,0.013523,0.002678,0.000431,0.073220
78143000,0.0324,0.013523,0.002678,0.000431,0.539572
78144000,0.0324,0.013523,0.002678,0.000431,0.572245
78145000,0.0324,0.013523,0.002678,0.000431,0.132572
78146000,0.0324,0.013523,0.002678,0.000431,0.133277
78147000,0.0324,0.013523,0.002678,0.000431,0.538867
78148000,0.0324,0.013523,0.002678,0.000431,0.238582
78149000,0.0324,0.013523,0.002678,0.000431,0.239757
78150000,0.0324,0.013523,0.002678,0.000431,0.303810
78151000,0.0324,0.013523,0.002678,0.000431,0.151141
78152000,0.0324,0.013523,0.002678,0.000431,0.137978
78153000,0.0324,0.013523,0.002678,0.000431,0.139623
78154000,0.0324,0.013523,0.002678,0.000431,0.270197
78155000,0.0324,0.013523,0.002678,0.000431,0.348471
78156000,0.0324,0.013523,0.002678,0.000431,0.078391
78157000,0.0324,0.013523,0.002678,0.000431,0.062290
78158000,0.0324,0.013523,0.002678,0.000431,0.047716
78159000,0.0324,0.013523,0.002678,0.000431,0.045954
78160000,0.0324,0.013523,0.002678,0.000431,0.036199
78161000,0.0324,0.013523,0.002678,0.000431,0.033496
78162000,0.0324,0.013523,0.002678,0.000431,0.030205
78163000,0.0324,0.013523,0.002678,0.000431,0.031733
78164000,0.0324,0.013523,0.002678,0.000431,0.023036
78165000,0.0324,0.013523,0.002678,0.000431,0.019040
78166000,0.0324,0.013523,0.002678,0.000431,0.018217
78167000,0.0324,0.013523,0.002678,0.000431,0.018805
78168000,0.0324,0.013523,0.002678,0.000431,0.011283
78169000,0.0324,0.013523,0.002678,0.000431,0.011518
78170000,0.0324,0.013523,0.002678,0.000431,0.010695
78171000,0.0324,0.013523,0.002678,0.000431,0.012928
78172000,0.0324,0.013523,0.002678,0.000431,0.009872
78173000,0.0324,0.013523,0.002678,0.000431,0.010225
78174000,0.0324,0.013523,0.002678,0.000431,0.009755
78175000,0.0324,0.013523,0.002678,0.000431,0.010107
78176000,0.0324,0.013523,0.002678,0.000431,0.009872
78177000,0.0324,0.013523,0.002678,0.000431,0.010342
78178000,0.0324,0.013523,0.002678,0.000431,0.009755
78179000,0.0324,0.013523,0.002678,0.000431,0.010107
78180000,0.0324,0.013523,0.002678,0.000431,0.012223
78181000,0.0324,0.013523,0.002678,0.000431,0.008815
78182000,0.0324,0.013523,0.002678,0.000431,0.007874
78183000,0.0324,0.013523,0.002678,0.000431,0.007169
78184000,0.0324,0.013523,0.002678,0.000431,0.007757
78185000,0.0324,0.013523,0.002678,0.000431,0.006817
78186000,0.0324,0.013523,0.002678,0.000431,0.007992
78187000,0.0324,0.013523,0.002678,0.000431,0.007757
78188000,0.0324,0.013523,0.002678,0.000431,0.007287
78189000,0.0324,0.013523,0.002678,0.000431,0.007757
78190000,0.0324,0.013523,0.002678,0.000431,0.006817
78191000,0.0324,0.013523,0.002678,0.000431,0.008109
78192000,0.0324,0.013523,0.002678,0.000431,0.007757
78193000,0.0324,0.013523,0.002678,0.000431,0.007287
78194000,0.0324,0.013523,0.002678,0.000431,0.007404
78195000,0.0324,0.013523,0.002678,0.000431,0.008697
78196000,0.0324,0.013523,0.002678,0.000431,0.008109
78197000,0.0324,0.013523,0.002678,0.000431,0.006347
78198000,0.0324,0.013523,0.002678,0.000431,0.007052
78199000,0.0324,0.013523,0.002678,0.000431,0.007169
78200000,0.0324,0.013523,0.002678,0.000431,0.004936
78201000,0.0324,0.013523,0.002678,0.000431,0.005289
78202000,0.0324,0.013523,0.002678,0.000431,0.007052
78203000,0.0324,0.013523,0.002678,0.000431,0.004349
78204000,0.0324,0.013523,0.002678,0.000431,0.004113
78205000,0.0324,0.013523,0.002678,0.000431,0.004349
78206000,0.0324,0.013523,0.002678,0.000431,0.004113
78207000,0.0324,0.013523,0.002678,0.000431,0.004349
78208000,0.0324,0.013523,0.002678,0.000431,0.004936
78209000,0.0324,0.013523,0.002678,0.000431,0.004231
78210000,0.0324,0.013523,0.002678,0.000431,0.003643
78211000,0.0324,0.013523,0.002678,0.000431,0.003408
78212000,0.0324,0.013523,0.002678,0.000431,0.003173
78213000,0.0324,0.013523,0.002678,0.000431,0.003408
78214000,0.0324,0.013523,0.002678,0.000431,0.003526
78215000,0.0324,0.013523,0.002678,0.000431,0.003526
78216000,0.0324,0.013523,0.002678,0.000431,0.003056
78217000,0.0324,0.013523,0.002678,0.000431,0.003643
78218000,0.0324,0.013523,0.002678,0.000431,0.003408
78219000,0.0324,0.013523,0.002678,0.000431,0.003173
78220000,0.0324,0.013523,0.002678,0.000431,0.003526
78221000,0.0324,0.013523,0.002678,0.000431,0.003408
78222000,0.0324,0.013523,0.002678,0.000431,0.003526
78223000,0.0324,0.013523,0.002678,0.000431,0.003291
78224000,0.0324,0.013523,0.002678,0.000431,0.003291
78225000,0.0324,0.013523,0.002678,0.000431,0.003643
78226000,0.0324,0.013523,0.002678,0.000431,0.003173
78227000,0.0324,0.013523,0.002678,0.000431,0.003526
78228000,0.0324,0.013523,0.002678,0.000431,0.003408
78229000,0.0324,0.013523,0.002678,0.000431,0.003408
78230000,0.0324,0.013523,0.002678,0.000431,0.003291
78231000,0.0324,0.013523,0.002678,0.000431,0.003408
78232000,0.0324,0.013523,0.002678,0.000431,0.003408
78233000,0.0324,0.013523,0.002678,0.000431,0.003291
78234000,0.0324,0.013523,0.002678,0.000431,0.003643
78235000,0.0324,0.013523,0.002678,0.000431,0.003056
78236000,0.0324,0.013523,0.002678,0.000431,0.003526
78237000,0.0324,0.013523,0.002678,0.000431,0.005171
78238000,0.0324,0.013523,0.002678,0.000431,0.003526
78239000,0.0324,0.013523,0.002678,0.000431,0.002703
78240000,0.0324,0.013523,0.002678,0.000431,0.001880
78241000,0.0324,0.013523,0.002678,0.000431,0.002938
78242000,0.0324,0.013523,0.002678,0.000431,0.000705
78243000,0.0324,0.013523,0.002678,0.000431,0.000940
78244000,0.0324,0.013523,0.002678,0.000431,0.000705
78245000,0.0324,0.013523,0.002678,0.000431,0.000940
78246000,0.0324,0.013523,0.002678,0.000431,0.000823
78247000,0.0324,0.013523,0.002678,0.000431,0.000823
78248000,0.0324,0.013523,0.002678,0.000431,0.000940
78249000,0.0324,0.013523,0.002678,0.000431,0.000705
78250000,0.0324,0.013523,0.002678,0.000431,0.000940
78251000,0.0324,0.013523,0.002678,0.000431,0.000823
78252000,0.0324,0.013523,0.002678,0.000431,0.000823
78253000,0.0324,0.013523,0.002678,0.000431,0.000823
78254000,0.0324,0.013523,0.002678,0.000431,0.000823
78255000,0.0324,0.013523,0.002678,0.000431,0.000823
78256000,0.0324,0.013523,0.002678,0.000431,0.000823
78257000,0.0324,0.013523,0.002678,0.000431,0.000940
78258000,0.0324,0.013523,0.002678,0.000431,0.000705
78259000,0.0324,0.013523,0.002678,0.000431,0.130691
78260000,0.0324,0.013523,0.002678,0.000431,0.525704
78261000,0.0324,0.013523,0.002678,0.000431,0.534048
78262000,0.0324,0.013523,0.002678,0.000431,0.133512
78263000,0.0324,0.013523,0.002678,0.000431,0.132572
78264000,0.0324,0.013523,0.002678,0.000431,0.591049
78265000,0.0324,0.013523,0.002678,0.000431,0.247279
78266000,0.0324,0.013523,0.002678,0.000431,0.299814
78267000,0.0324,0.013523,0.002678,0.000431,0.288062
78268000,0.0324,0.013523,0.002678,0.000431,0.143854
78269000,0.0324,0.013523,0.002678,0.000431,0.153374
78270000,0.0324,0.013523,0.002678,0.000431,0.145617
78271000,0.0324,0.013523,0.002678,0.000431,0.458007
78272000,0.0324,0.013523,0.002678,0.000431,0.089321
78273000,0.0324,0.013523,0.002678,0.000431,0.063113
78274000,0.0324,0.013523,0.002678,0.000431,0.052888
78275000,0.0324,0.013523,0.002678,0.000431,0.038432
78276000,0.0324,0.013523,0.002678,0.000431,0.036316
78277000,0.0324,0.013523,0.002678,0.000431,0.037021
78278000,0.0324,0.013523,0.002678,0.000431,0.033143
78279000,0.0324,0.013523,0.002678,0.000431,0.025269
78280000,0.0324,0.013523,0.002678,0.000431,0.021273
78281000,0.0324,0.013523,0.002678,0.000431,0.021743
78282000,0.0324,0.013523,0.002678,0.000431,0.021978
78283000,0.0324,0.013523,0.002678,0.000431,0.011048
78284000,0.0324,0.013523,0.002678,0.000431,0.012458
78285000,0.0324,0.013523,0.002678,0.000431,0.012105
78286000,0.0324,0.013523,0.002678,0.000431,0.012340
78287000,0.0324,0.013523,0.002678,0.000431,0.012811
78288000,0.0324,0.013523,0.002678,0.000431,0.010813
78289000,0.0324,0.013523,0.002678,0.000431,0.013516
78290000,0.0324,0.013523,0.002678,0.000431,0.008580
78291000,0.0324,0.013523,0.002678,0.000431,0.008227
78292000,0.0324,0.013523,0.002678,0.000431,0.008462
78293000,0.0324,0.013523,0.002678,0.000431,0.008815
78294000,0.0324,0.013523,0.002678,0.000431,0.008580
78295000,0.0324,0.013523,0.002678,0.000431,0.008462
78296000,0.0324,0.013523,0.002678,0.000431,0.007874
78297000,0.0324,0.013523,0.002678,0.000431,0.010578
78298000,0.0324,0.013523,0.002678,0.000431,0.007522
78299000,0.0324,0.013523,0.002678,0.000431,0.007287
78300000,0.0324,0.013523,0.002678,0.000431,0.007992
78301000,0.0324,0.013523,0.002678,0.000431,0.007169
78302000,0.0324,0.013523,0.002678,0.000431,0.008227
78303000,0.0324,0.013523,0.002678,0.000431,0.007169
78304000,0.0324,0.013523,0.002678,0.000431,0.007757
78305000,0.0324,0.013523,0.002678,0.000431,0.007757
78306000,0.0324,0.013523,0.002678,0.000431,0.007404
78307000,0.0324,0.013523,0.002678,0.000431,0.007757
78308000,0.0324,0.013523,0.002678,0.000431,0.007639
78309000,0.0324,0.013523,0.002678,0.000431,0.008697
78310000,0.0324,0.013523,0.002678,0.000431,0.006582
78311000,0.0324,0.013523,0.002678,0.000431,0.007052
78312000,0.0324,0.013523,0.002678,0.000431,0.006582
78313000,0.0324,0.013523,0.002678,0.000431,0.006699
78314000,0.0324,0.013523,0.002678,0.000431,0.007874
78315000,0.0324,0.013523,0.002678,0.000431,0.005759
78316000,0.0324,0.013523,0.002678,0.000431,0.006229
78317000,0.0324,0.013523,0.002678,0.000431,0.005876
78318000,0.0324,0.013523,0.002678,0.000431,0.006229
78319000,0.0324,0.013523,0.002678,0.000431,0.005876
78320000,0.0324,0.013523,0.002678,0.000431,0.006111
78321000,0.0324,0.013523,0.002678,0.000431,0.005994
78322000,0.0324,0.013523,0.002678,0.000431,0.005641
78323000,0.0324,0.013523,0.002678,0.000431,0.005994
78324000,0.0324,0.013523,0.002678,0.000431,0.005876
78325000,0.0324,0.013523,0.002678,0.000431,0.006464
78326000,0.0324,0.013523,0.002678,0.000431,0.005524
78327000,0.0324,0.013523,0.002678,0.000431,0.007874
78328000,0.0324,0.013523,0.002678,0.000431,0.005406
78329000,0.0324,0.013523,0.002678,0.000431,0.004936
78330000,0.0324,0.013523,0.002678,0.000431,0.004936
78331000,0.0324,0.013523,0.002678,0.000431,0.005289
78332000,0.0324,0.013523,0.002678,0.000431,0.005054
78333000,0.0324,0.013523,0.002678,0.000431,0.005054
78334000,0.0324,0.013523,0.002678,0.000431,0.005289
78335000,0.0324,0.013523,0.002678,0.000431,0.006582
78336000,0.0324,0.013523,0.002678,0.000431,0.004466
78337000,0.0324,0.013523,0.002678,0.000431,0.005759
78338000,0.0324,0.013523,0.002678,0.000431,0.003408
78339000,0.0324,0.013523,0.002678,0.000431,0.006817
78340000,0.0324,0.013523,0.002678,0.000431,0.002351
78341000,0.0324,0.013523,0.002678,0.000431,0.002703
78342000,0.0324,0.013523,0.002678,0.000431,0.002703
78343000,0.0324,0.013523,0.002678,0.000431,0.002468
78344000,0.0324,0.013523,0.002678,0.000431,0.002586
78345000,0.0324,0.013523,0.002678,0.000431,0.002351
78346000,0.0324,0.013523,0.002678,0.000431,0.002821
78347000,0.0324,0.013523,0.002678,0.000431,0.002468
78348000,0.0324,0.013523,0.002678,0.000431,0.002586
78349000,0.0324,0.013523,0.002678,0.000431,0.002468
78350000,0.0324,0.013523,0.002678,0.000431,0.002468
78351000,0.0324,0.013523,0.002678,0.000431,0.005289
78352000,0.0324,0.013523,0.002678,0.000431,0.001763
78353000,0.0324,0.013523,0.002678,0.000431,0.001880
78354000,0.0324,0.013523,0.002678,0.000431,0.001645
78355000,0.0324,0.013523,0.002678,0.000431,0.001763
78356000,0.0324,0.013523,0.002678,0.000431,0.001645
78357000,0.0324,0.013523,0.002678,0.000431,0.001763
78358000,0.0324,0.013523,0.002678,0.000431,0.001528
78359000,0.0324,0.013523,0.002678,0.000431,0.001880
78360000,0.0324,0.013523,0.002678,0.000431,0.001763
78361000,0.0324,0.013523,0.002678,0.000431,0.002938
78362000,0.0324,0.013523,0.002678,0.000431,0.000940
78363000,0.0324,0.013523,0.002678,0.000431,0.000705
78364000,0.0324,0.013523,0.002678,0.000431,0.000940
78365000,0.0324,0.013523,0.002678,0.000431,0.000823
78366000,0.0324,0.013523,0.002678,0.000431,0.000823
78367000,0.0324,0.013523,0.002678,0.000431,0.000940
78368000,0.0324,0.013523,0.002678,0.000431,0.000705
78369000,0.0324,0.013523,0.002678,0.000431,0.000940
78370000,0.0324,0.013523,0.002678,0.000431,0.000823
78371000,0.0324,0.013523,0.002678,0.000431,0.000823
78372000,0.0324,0.013523,0.002678,0.000431,0.000823
78373000,0.0324,0.013523,0.002678,0.000431,0.000823
78374000,0.0324,0.013523,0.002678,0.000431,0.000823
78375000,0.0324,0.013523,0.002678,0.000431,0.000823
78376000,0.0324,0.013523,0.002678,0.000431,0.000940
78377000,0.0324,0.013523,0.002678,0.000431,0.000823
78378000,0.0324,0.013523,0.002678,0.000431,0.000823
78379000,0.0324,0.013523,0.002678,0.000431,0.000823
78380000,0.0324,0.013523,0.002678,0.000431,0.000823
78381000,0.0324,0.013523,0.002678,0.000431,0.000823
