Cycle,Area(mm^2),PeakDynamic(W),SubthresholdLeakage(W),GateLeakage(W),RunTimeDynamic(W)
48000000,0.0324,0.013523,0.002678,0.000431,0.002821
48001000,0.0324,0.013523,0.002678,0.000431,0.002703
48002000,0.0324,0.013523,0.002678,0.000431,0.002703
48003000,0.0324,0.013523,0.002678,0.000431,0.002821
48004000,0.0324,0.013523,0.002678,0.000431,0.002703
48005000,0.0324,0.013523,0.002678,0.000431,0.002821
48006000,0.0324,0.013523,0.002678,0.000431,0.002468
48007000,0.0324,0.013523,0.002678,0.000431,0.002938
48008000,0.0324,0.013523,0.002678,0.000431,0.002586
48009000,0.0324,0.013523,0.002678,0.000431,0.002586
48010000,0.0324,0.013523,0.002678,0.000431,0.002938
48011000,0.0324,0.013523,0.002678,0.000431,0.002821
48012000,0.0324,0.013523,0.002678,0.000431,0.002703
48013000,0.0324,0.013523,0.002678,0.000431,0.003056
48014000,0.0324,0.013523,0.002678,0.000431,0.002468
48015000,0.0324,0.013523,0.002678,0.000431,0.002821
48016000,0.0324,0.013523,0.002678,0.000431,0.002703
48017000,0.0324,0.013523,0.002678,0.000431,0.002586
48018000,0.0324,0.013523,0.002678,0.000431,0.002938
48019000,0.0324,0.013523,0.002678,0.000431,0.002586
48020000,0.0324,0.013523,0.002678,0.000431,0.002586
48021000,0.0324,0.013523,0.002678,0.000431,0.002821
48022000,0.0324,0.013523,0.002678,0.000431,0.002938
48023000,0.0324,0.013523,0.002678,0.000431,0.002586
48024000,0.0324,0.013523,0.002678,0.000431,0.002586
48025000,0.0324,0.013523,0.002678,0.000431,0.002821
48026000,0.0324,0.013523,0.002678,0.000431,0.002821
48027000,0.0324,0.013523,0.002678,0.000431,0.002468
48028000,0.0324,0.013523,0.002678,0.000431,0.002938
48029000,0.0324,0.013523,0.002678,0.000431,0.002703
48030000,0.0324,0.013523,0.002678,0.000431,0.002938
48031000,0.0324,0.013523,0.002678,0.000431,0.002351
48032000,0.0324,0.013523,0.002678,0.000431,0.002938
48033000,0.0324,0.013523,0.002678,0.000431,0.002703
48034000,0.0324,0.013523,0.002678,0.000431,0.002351
48035000,0.0324,0.013523,0.002678,0.000431,0.003056
48036000,0.0324,0.013523,0.002678,0.000431,0.002821
48037000,0.0324,0.013523,0.002678,0.000431,0.002703
48038000,0.0324,0.013523,0.002678,0.000431,0.002468
48039000,0.0324,0.013523,0.002678,0.000431,0.002938
48040000,0.0324,0.013523,0.002678,0.000431,0.002821
48041000,0.0324,0.013523,0.002678,0.000431,0.002468
48042000,0.0324,0.013523,0.002678,0.000431,0.002703
48043000,0.0324,0.013523,0.002678,0.000431,0.002938
48044000,0.0324,0.013523,0.002678,0.000431,0.002703
48045000,0.0324,0.013523,0.002678,0.000431,0.002703
48046000,0.0324,0.013523,0.002678,0.000431,0.002586
48047000,0.0324,0.013523,0.002678,0.000431,0.002938
48048000,0.0324,0.013523,0.002678,0.000431,0.002586
48049000,0.0324,0.013523,0.002678,0.000431,0.002586
48050000,0.0324,0.013523,0.002678,0.000431,0.002938
48051000,0.0324,0.013523,0.002678,0.000431,0.002468
48052000,0.0324,0.013523,0.002678,0.000431,0.002938
48053000,0.0324,0.013523,0.002678,0.000431,0.002586
48054000,0.0324,0.013523,0.002678,0.000431,0.003056
48055000,0.0324,0.013523,0.002678,0.000431,0.002586
48056000,0.0324,0.013523,0.002678,0.000431,0.002468
48057000,0.0324,0.013523,0.002678,0.000431,0.002938
48058000,0.0324,0.013523,0.002678,0.000431,0.002586
48059000,0.0324,0.013523,0.002678,0.000431,0.002938
48060000,0.0324,0.013523,0.002678,0.000431,0.002468
48061000,0.0324,0.013523,0.002678,0.000431,0.002938
48062000,0.0324,0.013523,0.002678,0.000431,0.002586
48063000,0.0324,0.013523,0.002678,0.000431,0.002703
48064000,0.0324,0.013523,0.002678,0.000431,0.002821
48065000,0.0324,0.013523,0.002678,0.000431,0.002821
48066000,0.0324,0.013523,0.002678,0.000431,0.002703
48067000,0.0324,0.013523,0.002678,0.000431,0.002468
48068000,0.0324,0.013523,0.002678,0.000431,0.002938
48069000,0.0324,0.013523,0.002678,0.000431,0.002703
48070000,0.0324,0.013523,0.002678,0.000431,0.002468
48071000,0.0324,0.013523,0.002678,0.000431,0.002938
48072000,0.0324,0.013523,0.002678,0.000431,0.002821
48073000,0.0324,0.013523,0.002678,0.000431,0.002468
48074000,0.0324,0.013523,0.002678,0.000431,0.002703
48075000,0.0324,0.013523,0.002678,0.000431,0.002938
48076000,0.0324,0.013523,0.002678,0.000431,0.002938
48077000,0.0324,0.013523,0.002678,0.000431,0.002351
48078000,0.0324,0.013523,0.002678,0.000431,0.002821
48079000,0.0324,0.013523,0.002678,0.000431,0.002821
48080000,0.0324,0.013523,0.002678,0.000431,0.002468
48081000,0.0324,0.013523,0.002678,0.000431,0.002821
48082000,0.0324,0.013523,0.002678,0.000431,0.002821
48083000,0.0324,0.013523,0.002678,0.000431,0.002938
48084000,0.0324,0.013523,0.002678,0.000431,0.002351
48085000,0.0324,0.013523,0.002678,0.000431,0.002821
48086000,0.0324,0.013523,0.002678,0.000431,0.002821
48087000,0.0324,0.013523,0.002678,0.000431,0.002586
48088000,0.0324,0.013523,0.002678,0.000431,0.002821
48089000,0.0324,0.013523,0.002678,0.000431,0.002703
48090000,0.0324,0.013523,0.002678,0.000431,0.002821
48091000,0.0324,0.013523,0.002678,0.000431,0.002703
48092000,0.0324,0.013523,0.002678,0.000431,0.002703
48093000,0.0324,0.013523,0.002678,0.000431,0.002703
48094000,0.0324,0.013523,0.002678,0.000431,0.002586
48095000,0.0324,0.013523,0.002678,0.000431,0.002703
48096000,0.0324,0.013523,0.002678,0.000431,0.002938
48097000,0.0324,0.013523,0.002678,0.000431,0.002586
48098000,0.0324,0.013523,0.002678,0.000431,0.002821
48099000,0.0324,0.013523,0.002678,0.000431,0.002586
48100000,0.0324,0.013523,0.002678,0.000431,0.002938
48101000,0.0324,0.013523,0.002678,0.000431,0.002468
48102000,0.0324,0.013523,0.002678,0.000431,0.002703
48103000,0.0324,0.013523,0.002678,0.000431,0.002938
48104000,0.0324,0.013523,0.002678,0.000431,0.002468
48105000,0.0324,0.013523,0.002678,0.000431,0.002938
48106000,0.0324,0.013523,0.002678,0.000431,0.002586
48107000,0.0324,0.013523,0.002678,0.000431,0.002938
48108000,0.0324,0.013523,0.002678,0.000431,0.002586
48109000,0.0324,0.013523,0.002678,0.000431,0.002703
48110000,0.0324,0.013523,0.002678,0.000431,0.002821
48111000,0.0324,0.013523,0.002678,0.000431,0.002821
48112000,0.0324,0.013523,0.002678,0.000431,0.002703
48113000,0.0324,0.013523,0.002678,0.000431,0.002468
48114000,0.0324,0.013523,0.002678,0.000431,0.002938
48115000,0.0324,0.013523,0.002678,0.000431,0.002703
48116000,0.0324,0.013523,0.002678,0.000431,0.002468
48117000,0.0324,0.013523,0.002678,0.000431,0.002938
48118000,0.0324,0.013523,0.002678,0.000431,0.002821
48119000,0.0324,0.013523,0.002678,0.000431,0.002468
48120000,0.0324,0.013523,0.002678,0.000431,0.002703
48121000,0.0324,0.013523,0.002678,0.000431,0.002938
48122000,0.0324,0.013523,0.002678,0.000431,0.002938
48123000,0.0324,0.013523,0.002678,0.000431,0.002351
48124000,0.0324,0.013523,0.002678,0.000431,0.002703
48125000,0.0324,0.013523,0.002678,0.000431,0.002938
48126000,0.0324,0.013523,0.002678,0.000431,0.002586
48127000,0.0324,0.013523,0.002678,0.000431,0.002703
48128000,0.0324,0.013523,0.002678,0.000431,0.002703
48129000,0.0324,0.013523,0.002678,0.000431,0.003056
48130000,0.0324,0.013523,0.002678,0.000431,0.002351
48131000,0.0324,0.013523,0.002678,0.000431,0.002821
48132000,0.0324,0.013523,0.002678,0.000431,0.002821
48133000,0.0324,0.013523,0.002678,0.000431,0.002586
48134000,0.0324,0.013523,0.002678,0.000431,0.002703
48135000,0.0324,0.013523,0.002678,0.000431,0.002703
48136000,0.0324,0.013523,0.002678,0.000431,0.002938
48137000,0.0324,0.013523,0.002678,0.000431,0.002703
48138000,0.0324,0.013523,0.002678,0.000431,0.002586
48139000,0.0324,0.013523,0.002678,0.000431,0.002821
48140000,0.0324,0.013523,0.002678,0.000431,0.002586
48141000,0.0324,0.013523,0.002678,0.000431,0.002703
48142000,0.0324,0.013523,0.002678,0.000431,0.002821
48143000,0.0324,0.013523,0.002678,0.000431,0.002703
48144000,0.0324,0.013523,0.002678,0.000431,0.002821
48145000,0.0324,0.013523,0.002678,0.000431,0.002586
48146000,0.0324,0.013523,0.002678,0.000431,0.002938
48147000,0.0324,0.013523,0.002678,0.000431,0.002468
48148000,0.0324,0.013523,0.002678,0.000431,0.002703
48149000,0.0324,0.013523,0.002678,0.000431,0.002821
48150000,0.0324,0.013523,0.002678,0.000431,0.002586
48151000,0.0324,0.013523,0.002678,0.000431,0.002938
48152000,0.0324,0.013523,0.002678,0.000431,0.002586
48153000,0.0324,0.013523,0.002678,0.000431,0.002821
48154000,0.0324,0.013523,0.002678,0.000431,0.002586
48155000,0.0324,0.013523,0.002678,0.000431,0.002703
48156000,0.0324,0.013523,0.002678,0.000431,0.002938
48157000,0.0324,0.013523,0.002678,0.000431,0.002703
48158000,0.0324,0.013523,0.002678,0.000431,0.002703
48159000,0.0324,0.013523,0.002678,0.000431,0.002586
48160000,0.0324,0.013523,0.002678,0.000431,0.002938
48161000,0.0324,0.013523,0.002678,0.000431,0.002468
48162000,0.0324,0.013523,0.002678,0.000431,0.002586
48163000,0.0324,0.013523,0.002678,0.000431,0.003056
48164000,0.0324,0.013523,0.002678,0.000431,0.002821
48165000,0.0324,0.013523,0.002678,0.000431,0.002468
48166000,0.0324,0.013523,0.002678,0.000431,0.002703
48167000,0.0324,0.013523,0.002678,0.000431,0.002938
48168000,0.0324,0.013523,0.002678,0.000431,0.002938
48169000,0.0324,0.013523,0.002678,0.000431,0.002233
48170000,0.0324,0.013523,0.002678,0.000431,0.002821
48171000,0.0324,0.013523,0.002678,0.000431,0.003056
48172000,0.0324,0.013523,0.002678,0.000431,0.002586
48173000,0.0324,0.013523,0.002678,0.000431,0.003056
48174000,0.0324,0.013523,0.002678,0.000431,0.002468
48175000,0.0324,0.013523,0.002678,0.000431,0.002938
48176000,0.0324,0.013523,0.002678,0.000431,0.002586
48177000,0.0324,0.013523,0.002678,0.000431,0.002468
48178000,0.0324,0.013523,0.002678,0.000431,0.003056
48179000,0.0324,0.013523,0.002678,0.000431,0.002821
48180000,0.0324,0.013523,0.002678,0.000431,0.002351
48181000,0.0324,0.013523,0.002678,0.000431,0.002821
48182000,0.0324,0.013523,0.002678,0.000431,0.002938
48183000,0.0324,0.013523,0.002678,0.000431,0.002703
48184000,0.0324,0.013523,0.002678,0.000431,0.002351
48185000,0.0324,0.013523,0.002678,0.000431,0.002938
48186000,0.0324,0.013523,0.002678,0.000431,0.002938
48187000,0.0324,0.013523,0.002678,0.000431,0.002468
48188000,0.0324,0.013523,0.002678,0.000431,0.002703
48189000,0.0324,0.013523,0.002678,0.000431,0.002821
48190000,0.0324,0.013523,0.002678,0.000431,0.003056
48191000,0.0324,0.013523,0.002678,0.000431,0.002233
48192000,0.0324,0.013523,0.002678,0.000431,0.002938
48193000,0.0324,0.013523,0.002678,0.000431,0.002821
48194000,0.0324,0.013523,0.002678,0.000431,0.002586
48195000,0.0324,0.013523,0.002678,0.000431,0.002703
48196000,0.0324,0.013523,0.002678,0.000431,0.002703
48197000,0.0324,0.013523,0.002678,0.000431,0.002938
48198000,0.0324,0.013523,0.002678,0.000431,0.002351
48199000,0.0324,0.013523,0.002678,0.000431,0.002938
48200000,0.0324,0.013523,0.002678,0.000431,0.002821
48201000,0.0324,0.013523,0.002678,0.000431,0.002586
48202000,0.0324,0.013523,0.002678,0.000431,0.002703
48203000,0.0324,0.013523,0.002678,0.000431,0.002703
48204000,0.0324,0.013523,0.002678,0.000431,0.002821
48205000,0.0324,0.013523,0.002678,0.000431,0.002821
48206000,0.0324,0.013523,0.002678,0.000431,0.002586
48207000,0.0324,0.013523,0.002678,0.000431,0.002821
48208000,0.0324,0.013523,0.002678,0.000431,0.002586
48209000,0.0324,0.013523,0.002678,0.000431,0.002703
48210000,0.0324,0.013523,0.002678,0.000431,0.002821
48211000,0.0324,0.013523,0.002678,0.000431,0.002468
48212000,0.0324,0.013523,0.002678,0.000431,0.003056
48213000,0.0324,0.013523,0.002678,0.000431,0.002468
48214000,0.0324,0.013523,0.002678,0.000431,0.002938
48215000,0.0324,0.013523,0.002678,0.000431,0.002586
48216000,0.0324,0.013523,0.002678,0.000431,0.002703
48217000,0.0324,0.013523,0.002678,0.000431,0.002821
48218000,0.0324,0.013523,0.002678,0.000431,0.002468
48219000,0.0324,0.013523,0.002678,0.000431,0.003056
48220000,0.0324,0.013523,0.002678,0.000431,0.002586
48221000,0.0324,0.013523,0.002678,0.000431,0.002821
48222000,0.0324,0.013523,0.002678,0.000431,0.002586
48223000,0.0324,0.013523,0.002678,0.000431,0.002586
48224000,0.0324,0.013523,0.002678,0.000431,0.003056
48225000,0.0324,0.013523,0.002678,0.000431,0.002703
48226000,0.0324,0.013523,0.002678,0.000431,0.002351
48227000,0.0324,0.013523,0.002678,0.000431,0.002938
48228000,0.0324,0.013523,0.002678,0.000431,0.002938
48229000,0.0324,0.013523,0.002678,0.000431,0.002586
48230000,0.0324,0.013523,0.002678,0.000431,0.002938
48231000,0.0324,0.013523,0.002678,0.000431,0.002586
48232000,0.0324,0.013523,0.002678,0.000431,0.002821
48233000,0.0324,0.013523,0.002678,0.000431,0.002703
48234000,0.0324,0.013523,0.002678,0.000431,0.002586
48235000,0.0324,0.013523,0.002678,0.000431,0.002938
48236000,0.0324,0.013523,0.002678,0.000431,0.002703
48237000,0.0324,0.013523,0.002678,0.000431,0.002821
48238000,0.0324,0.013523,0.002678,0.000431,0.002468
48239000,0.0324,0.013523,0.002678,0.000431,0.002938
48240000,0.0324,0.013523,0.002678,0.000431,0.002821
48241000,0.0324,0.013523,0.002678,0.000431,0.002351
48242000,0.0324,0.013523,0.002678,0.000431,0.002938
48243000,0.0324,0.013523,0.002678,0.000431,0.002821
48244000,0.0324,0.013523,0.002678,0.000431,0.002468
48245000,0.0324,0.013523,0.002678,0.000431,0.002703
48246000,0.0324,0.013523,0.002678,0.000431,0.002938
48247000,0.0324,0.013523,0.002678,0.000431,0.002938
48248000,0.0324,0.013523,0.002678,0.000431,0.002351
48249000,0.0324,0.013523,0.002678,0.000431,0.002821
48250000,0.0324,0.013523,0.002678,0.000431,0.002821
48251000,0.0324,0.013523,0.002678,0.000431,0.002821
48252000,0.0324,0.013523,0.002678,0.000431,0.002468
48253000,0.0324,0.013523,0.002678,0.000431,0.002821
48254000,0.0324,0.013523,0.002678,0.000431,0.002938
48255000,0.0324,0.013523,0.002678,0.000431,0.002468
48256000,0.0324,0.013523,0.002678,0.000431,0.002821
48257000,0.0324,0.013523,0.002678,0.000431,0.002703
48258000,0.0324,0.013523,0.002678,0.000431,0.002586
48259000,0.0324,0.013523,0.002678,0.000431,0.002821
48260000,0.0324,0.013523,0.002678,0.000431,0.002821
48261000,0.0324,0.013523,0.002678,0.000431,0.002703
48262000,0.0324,0.013523,0.002678,0.000431,0.002703
48263000,0.0324,0.013523,0.002678,0.000431,0.002703
48264000,0.0324,0.013523,0.002678,0.000431,0.002821
48265000,0.0324,0.013523,0.002678,0.000431,0.002468
48266000,0.0324,0.013523,0.002678,0.000431,0.003056
48267000,0.0324,0.013523,0.002678,0.000431,0.002586
48268000,0.0324,0.013523,0.002678,0.000431,0.002703
48269000,0.0324,0.013523,0.002678,0.000431,0.002703
48270000,0.0324,0.013523,0.002678,0.000431,0.002586
48271000,0.0324,0.013523,0.002678,0.000431,0.002938
48272000,0.0324,0.013523,0.002678,0.000431,0.002586
48273000,0.0324,0.013523,0.002678,0.000431,0.004113
48274000,0.0324,0.013523,0.002678,0.000431,0.001998
48275000,0.0324,0.013523,0.002678,0.000431,0.001763
48276000,0.0324,0.013523,0.002678,0.000431,0.001998
48277000,0.0324,0.013523,0.002678,0.000431,0.001645
48278000,0.0324,0.013523,0.002678,0.000431,0.001998
48279000,0.0324,0.013523,0.002678,0.000431,0.001763
48280000,0.0324,0.013523,0.002678,0.000431,0.001763
48281000,0.0324,0.013523,0.002678,0.000431,0.001998
48282000,0.0324,0.013523,0.002678,0.000431,0.001880
48283000,0.0324,0.013523,0.002678,0.000431,0.001880
48284000,0.0324,0.013523,0.002678,0.000431,0.001645
48285000,0.0324,0.013523,0.002678,0.000431,0.001998
48286000,0.0324,0.013523,0.002678,0.000431,0.001998
48287000,0.0324,0.013523,0.002678,0.000431,0.001410
48288000,0.0324,0.013523,0.002678,0.000431,0.002116
48289000,0.0324,0.013523,0.002678,0.000431,0.001880
48290000,0.0324,0.013523,0.002678,0.000431,0.001645
48291000,0.0324,0.013523,0.002678,0.000431,0.001880
48292000,0.0324,0.013523,0.002678,0.000431,0.001998
48293000,0.0324,0.013523,0.002678,0.000431,0.001998
48294000,0.0324,0.013523,0.002678,0.000431,0.001410
48295000,0.0324,0.013523,0.002678,0.000431,0.001998
48296000,0.0324,0.013523,0.002678,0.000431,0.001998
48297000,0.0324,0.013523,0.002678,0.000431,0.001880
48298000,0.0324,0.013523,0.002678,0.000431,0.001645
48299000,0.0324,0.013523,0.002678,0.000431,0.001880
48300000,0.0324,0.013523,0.002678,0.000431,0.002116
48301000,0.0324,0.013523,0.002678,0.000431,0.001645
48302000,0.0324,0.013523,0.002678,0.000431,0.001880
48303000,0.0324,0.013523,0.002678,0.000431,0.001998
48304000,0.0324,0.013523,0.002678,0.000431,0.001998
48305000,0.0324,0.013523,0.002678,0.000431,0.001410
48306000,0.0324,0.013523,0.002678,0.000431,0.002116
48307000,0.0324,0.013523,0.002678,0.000431,0.001880
48308000,0.0324,0.013523,0.002678,0.000431,0.001998
48309000,0.0324,0.013523,0.002678,0.000431,0.001528
48310000,0.0324,0.013523,0.002678,0.000431,0.001998
48311000,0.0324,0.013523,0.002678,0.000431,0.002116
48312000,0.0324,0.013523,0.002678,0.000431,0.001763
48313000,0.0324,0.013523,0.002678,0.000431,0.002116
48314000,0.0324,0.013523,0.002678,0.000431,0.001645
48315000,0.0324,0.013523,0.002678,0.000431,0.001998
48316000,0.0324,0.013523,0.002678,0.000431,0.001763
48317000,0.0324,0.013523,0.002678,0.000431,0.001763
48318000,0.0324,0.013523,0.002678,0.000431,0.001998
48319000,0.0324,0.013523,0.002678,0.000431,0.001880
48320000,0.0324,0.013523,0.002678,0.000431,0.001880
48321000,0.0324,0.013523,0.002678,0.000431,0.001645
48322000,0.0324,0.013523,0.002678,0.000431,0.001998
48323000,0.0324,0.013523,0.002678,0.000431,0.001880
48324000,0.0324,0.013523,0.002678,0.000431,0.001528
48325000,0.0324,0.013523,0.002678,0.000431,0.002116
48326000,0.0324,0.013523,0.002678,0.000431,0.001880
48327000,0.0324,0.013523,0.002678,0.000431,0.001645
48328000,0.0324,0.013523,0.002678,0.000431,0.001880
48329000,0.0324,0.013523,0.002678,0.000431,0.001998
48330000,0.0324,0.013523,0.002678,0.000431,0.001998
48331000,0.0324,0.013523,0.002678,0.000431,0.001410
48332000,0.0324,0.013523,0.002678,0.000431,0.001998
48333000,0.0324,0.013523,0.002678,0.000431,0.001998
48334000,0.0324,0.013523,0.002678,0.000431,0.001880
48335000,0.0324,0.013523,0.002678,0.000431,0.001645
48336000,0.0324,0.013523,0.002678,0.000431,0.001880
48337000,0.0324,0.013523,0.002678,0.000431,0.002116
48338000,0.0324,0.013523,0.002678,0.000431,0.003173
48339000,0.0324,0.013523,0.002678,0.000431,0.362809
48340000,0.0324,0.013523,0.002678,0.000431,0.681663
48341000,0.0324,0.013523,0.002678,0.000431,0.134687
48342000,0.0324,0.013523,0.002678,0.000431,0.133982
48343000,0.0324,0.013523,0.002678,0.000431,0.156900
48344000,0.0324,0.013523,0.002678,0.000431,0.593165
48345000,0.0324,0.013523,0.002678,0.000431,0.280540
48346000,0.0324,0.013523,0.002678,0.000431,0.263851
48347000,0.0324,0.013523,0.002678,0.000431,0.254213
48348000,0.0324,0.013523,0.002678,0.000431,0.137978
48349000,0.0324,0.013523,0.002678,0.000431,0.155255
48350000,0.0324,0.013523,0.002678,0.000431,0.138683
48351000,0.0324,0.013523,0.002678,0.000431,0.453659
48352000,0.0324,0.013523,0.002678,0.000431,0.068049
48353000,0.0324,0.013523,0.002678,0.000431,0.043015
48354000,0.0324,0.013523,0.002678,0.000431,0.038549
48355000,0.0324,0.013523,0.002678,0.000431,0.031850
48356000,0.0324,0.013523,0.002678,0.000431,0.023036
48357000,0.0324,0.013523,0.002678,0.000431,0.020685
48358000,0.0324,0.013523,0.002678,0.000431,0.016807
48359000,0.0324,0.013523,0.002678,0.000431,0.021390
48360000,0.0324,0.013523,0.002678,0.000431,0.017042
48361000,0.0324,0.013523,0.002678,0.000431,0.012928
48362000,0.0324,0.013523,0.002678,0.000431,0.014338
48363000,0.0324,0.013523,0.002678,0.000431,0.016689
48364000,0.0324,0.013523,0.002678,0.000431,0.012693
48365000,0.0324,0.013523,0.002678,0.000431,0.013398
48366000,0.0324,0.013523,0.002678,0.000431,0.013163
48367000,0.0324,0.013523,0.002678,0.000431,0.015866
48368000,0.0324,0.013523,0.002678,0.000431,0.011870
48369000,0.0324,0.013523,0.002678,0.000431,0.010813
48370000,0.0324,0.013523,0.002678,0.000431,0.012693
48371000,0.0324,0.013523,0.002678,0.000431,0.012223
48372000,0.0324,0.013523,0.002678,0.000431,0.008227
48373000,0.0324,0.013523,0.002678,0.000431,0.007404
48374000,0.0324,0.013523,0.002678,0.000431,0.005406
48375000,0.0324,0.013523,0.002678,0.000431,0.005641
48376000,0.0324,0.013523,0.002678,0.000431,0.004936
48377000,0.0324,0.013523,0.002678,0.000431,0.005759
48378000,0.0324,0.013523,0.002678,0.000431,0.005171
48379000,0.0324,0.013523,0.002678,0.000431,0.005406
48380000,0.0324,0.013523,0.002678,0.000431,0.005054
48381000,0.0324,0.013523,0.002678,0.000431,0.005406
