Cycle,Area(mm^2),PeakDynamic(W),SubthresholdLeakage(W),GateLeakage(W),RunTimeDynamic(W)
70000000,0.0324,0.013523,0.002678,0.000431,0.002821
70001000,0.0324,0.013523,0.002678,0.000431,0.003408
70002000,0.0324,0.013523,0.002678,0.000431,0.003526
70003000,0.0324,0.013523,0.002678,0.000431,0.002821
70004000,0.0324,0.013523,0.002678,0.000431,0.003878
70005000,0.0324,0.013523,0.002678,0.000431,0.006464
70006000,0.0324,0.013523,0.002678,0.000431,0.001058
70007000,0.0324,0.013523,0.002678,0.000431,0.000823
70008000,0.0324,0.013523,0.002678,0.000431,0.000823
70009000,0.0324,0.013523,0.002678,0.000431,0.000823
70010000,0.0324,0.013523,0.002678,0.000431,0.000823
70011000,0.0324,0.013523,0.002678,0.000431,0.000940
70012000,0.0324,0.013523,0.002678,0.000431,0.000705
70013000,0.0324,0.013523,0.002678,0.000431,0.000940
70014000,0.0324,0.013523,0.002678,0.000431,0.000823
70015000,0.0324,0.013523,0.002678,0.000431,0.000823
70016000,0.0324,0.013523,0.002678,0.000431,0.000823
70017000,0.0324,0.013523,0.002678,0.000431,0.000823
70018000,0.0324,0.013523,0.002678,0.000431,0.000940
70019000,0.0324,0.013523,0.002678,0.000431,0.206732
70020000,0.0324,0.013523,0.002678,0.000431,0.505371
70021000,0.0324,0.013523,0.002678,0.000431,0.483864
70022000,0.0324,0.013523,0.002678,0.000431,0.133512
70023000,0.0324,0.013523,0.002678,0.000431,0.134100
70024000,0.0324,0.013523,0.002678,0.000431,0.610559
70025000,0.0324,0.013523,0.002678,0.000431,0.279717
70026000,0.0324,0.013523,0.002678,0.000431,0.273606
70027000,0.0324,0.013523,0.002678,0.000431,0.237524
70028000,0.0324,0.013523,0.002678,0.000431,0.150789
70029000,0.0324,0.013523,0.002678,0.000431,0.154432
70030000,0.0324,0.013523,0.002678,0.000431,0.152434
70031000,0.0324,0.013523,0.002678,0.000431,0.460828
70032000,0.0324,0.013523,0.002678,0.000431,0.111652
70033000,0.0324,0.013523,0.002678,0.000431,0.095080
70034000,0.0324,0.013523,0.002678,0.000431,0.074748
70035000,0.0324,0.013523,0.002678,0.000431,0.046776
70036000,0.0324,0.013523,0.002678,0.000431,0.044191
70037000,0.0324,0.013523,0.002678,0.000431,0.038079
70038000,0.0324,0.013523,0.002678,0.000431,0.034318
70039000,0.0324,0.013523,0.002678,0.000431,0.025621
70040000,0.0324,0.013523,0.002678,0.000431,0.019627
70041000,0.0324,0.013523,0.002678,0.000431,0.017042
70042000,0.0324,0.013523,0.002678,0.000431,0.016101
70043000,0.0324,0.013523,0.002678,0.000431,0.016336
70044000,0.0324,0.013523,0.002678,0.000431,0.013986
70045000,0.0324,0.013523,0.002678,0.000431,0.015631
70046000,0.0324,0.013523,0.002678,0.000431,0.016219
70047000,0.0324,0.013523,0.002678,0.000431,0.013516
70048000,0.0324,0.013523,0.002678,0.000431,0.015631
70049000,0.0324,0.013523,0.002678,0.000431,0.014573
70050000,0.0324,0.013523,0.002678,0.000431,0.012576
70051000,0.0324,0.013523,0.002678,0.000431,0.009990
70052000,0.0324,0.013523,0.002678,0.000431,0.010695
70053000,0.0324,0.013523,0.002678,0.000431,0.009755
70054000,0.0324,0.013523,0.002678,0.000431,0.013986
70055000,0.0324,0.013523,0.002678,0.000431,0.008697
70056000,0.0324,0.013523,0.002678,0.000431,0.008227
70057000,0.0324,0.013523,0.002678,0.000431,0.008932
70058000,0.0324,0.013523,0.002678,0.000431,0.008109
70059000,0.0324,0.013523,0.002678,0.000431,0.008462
70060000,0.0324,0.013523,0.002678,0.000431,0.008462
70061000,0.0324,0.013523,0.002678,0.000431,0.008462
70062000,0.0324,0.013523,0.002678,0.000431,0.008462
70063000,0.0324,0.013523,0.002678,0.000431,0.008109
70064000,0.0324,0.013523,0.002678,0.000431,0.009872
70065000,0.0324,0.013523,0.002678,0.000431,0.007639
70066000,0.0324,0.013523,0.002678,0.000431,0.007874
70067000,0.0324,0.013523,0.002678,0.000431,0.007522
70068000,0.0324,0.013523,0.002678,0.000431,0.007639
70069000,0.0324,0.013523,0.002678,0.000431,0.007404
70070000,0.0324,0.013523,0.002678,0.000431,0.008109
70071000,0.0324,0.013523,0.002678,0.000431,0.007522
70072000,0.0324,0.013523,0.002678,0.000431,0.007639
70073000,0.0324,0.013523,0.002678,0.000431,0.007639
70074000,0.0324,0.013523,0.002678,0.000431,0.007639
70075000,0.0324,0.013523,0.002678,0.000431,0.007404
70076000,0.0324,0.013523,0.002678,0.000431,0.007757
70077000,0.0324,0.013523,0.002678,0.000431,0.007757
70078000,0.0324,0.013523,0.002678,0.000431,0.008345
70079000,0.0324,0.013523,0.002678,0.000431,0.006817
70080000,0.0324,0.013523,0.002678,0.000431,0.008697
70081000,0.0324,0.013523,0.002678,0.000431,0.005876
70082000,0.0324,0.013523,0.002678,0.000431,0.004113
70083000,0.0324,0.013523,0.002678,0.000431,0.004231
70084000,0.0324,0.013523,0.002678,0.000431,0.004466
70085000,0.0324,0.013523,0.002678,0.000431,0.004584
70086000,0.0324,0.013523,0.002678,0.000431,0.004466
70087000,0.0324,0.013523,0.002678,0.000431,0.003878
70088000,0.0324,0.013523,0.002678,0.000431,0.005876
70089000,0.0324,0.013523,0.002678,0.000431,0.003761
70090000,0.0324,0.013523,0.002678,0.000431,0.003173
70091000,0.0324,0.013523,0.002678,0.000431,0.003408
70092000,0.0324,0.013523,0.002678,0.000431,0.003761
70093000,0.0324,0.013523,0.002678,0.000431,0.003761
70094000,0.0324,0.013523,0.002678,0.000431,0.003056
70095000,0.0324,0.013523,0.002678,0.000431,0.003526
70096000,0.0324,0.013523,0.002678,0.000431,0.003761
70097000,0.0324,0.013523,0.002678,0.000431,0.003408
70098000,0.0324,0.013523,0.002678,0.000431,0.003526
70099000,0.0324,0.013523,0.002678,0.000431,0.003408
70100000,0.0324,0.013523,0.002678,0.000431,0.003761
70101000,0.0324,0.013523,0.002678,0.000431,0.003291
70102000,0.0324,0.013523,0.002678,0.000431,0.003291
70103000,0.0324,0.013523,0.002678,0.000431,0.003761
70104000,0.0324,0.013523,0.002678,0.000431,0.003526
70105000,0.0324,0.013523,0.002678,0.000431,0.003408
70106000,0.0324,0.013523,0.002678,0.000431,0.003408
70107000,0.0324,0.013523,0.002678,0.000431,0.003526
70108000,0.0324,0.013523,0.002678,0.000431,0.003643
70109000,0.0324,0.013523,0.002678,0.000431,0.003173
70110000,0.0324,0.013523,0.002678,0.000431,0.003526
70111000,0.0324,0.013523,0.002678,0.000431,0.003761
70112000,0.0324,0.013523,0.002678,0.000431,0.003291
70113000,0.0324,0.013523,0.002678,0.000431,0.003408
70114000,0.0324,0.013523,0.002678,0.000431,0.003643
70115000,0.0324,0.013523,0.002678,0.000431,0.003526
70116000,0.0324,0.013523,0.002678,0.000431,0.003408
70117000,0.0324,0.013523,0.002678,0.000431,0.003291
70118000,0.0324,0.013523,0.002678,0.000431,0.003643
70119000,0.0324,0.013523,0.002678,0.000431,0.003643
70120000,0.0324,0.013523,0.002678,0.000431,0.003408
70121000,0.0324,0.013523,0.002678,0.000431,0.003291
70122000,0.0324,0.013523,0.002678,0.000431,0.003761
70123000,0.0324,0.013523,0.002678,0.000431,0.003291
70124000,0.0324,0.013523,0.002678,0.000431,0.005289
70125000,0.0324,0.013523,0.002678,0.000431,0.002703
70126000,0.0324,0.013523,0.002678,0.000431,0.002703
70127000,0.0324,0.013523,0.002678,0.000431,0.002703
70128000,0.0324,0.013523,0.002678,0.000431,0.002468
70129000,0.0324,0.013523,0.002678,0.000431,0.002586
70130000,0.0324,0.013523,0.002678,0.000431,0.002821
70131000,0.0324,0.013523,0.002678,0.000431,0.002351
70132000,0.0324,0.013523,0.002678,0.000431,0.002703
70133000,0.0324,0.013523,0.002678,0.000431,0.002586
70134000,0.0324,0.013523,0.002678,0.000431,0.002703
70135000,0.0324,0.013523,0.002678,0.000431,0.002586
70136000,0.0324,0.013523,0.002678,0.000431,0.002468
70137000,0.0324,0.013523,0.002678,0.000431,0.002703
70138000,0.0324,0.013523,0.002678,0.000431,0.002586
70139000,0.0324,0.013523,0.002678,0.000431,0.002586
70140000,0.0324,0.013523,0.002678,0.000431,0.002586
70141000,0.0324,0.013523,0.002678,0.000431,0.002703
70142000,0.0324,0.013523,0.002678,0.000431,0.002586
70143000,0.0324,0.013523,0.002678,0.000431,0.002468
70144000,0.0324,0.013523,0.002678,0.000431,0.002703
70145000,0.0324,0.013523,0.002678,0.000431,0.002703
70146000,0.0324,0.013523,0.002678,0.000431,0.002586
70147000,0.0324,0.013523,0.002678,0.000431,0.002351
70148000,0.0324,0.013523,0.002678,0.000431,0.002821
70149000,0.0324,0.013523,0.002678,0.000431,0.002703
70150000,0.0324,0.013523,0.002678,0.000431,0.002351
70151000,0.0324,0.013523,0.002678,0.000431,0.003643
70152000,0.0324,0.013523,0.002678,0.000431,0.001645
70153000,0.0324,0.013523,0.002678,0.000431,0.001880
70154000,0.0324,0.013523,0.002678,0.000431,0.001763
70155000,0.0324,0.013523,0.002678,0.000431,0.001763
70156000,0.0324,0.013523,0.002678,0.000431,0.001763
70157000,0.0324,0.013523,0.002678,0.000431,0.001645
70158000,0.0324,0.013523,0.002678,0.000431,0.001763
70159000,0.0324,0.013523,0.002678,0.000431,0.001880
70160000,0.0324,0.013523,0.002678,0.000431,0.001763
70161000,0.0324,0.013523,0.002678,0.000431,0.001645
70162000,0.0324,0.013523,0.002678,0.000431,0.001763
70163000,0.0324,0.013523,0.002678,0.000431,0.001763
70164000,0.0324,0.013523,0.002678,0.000431,0.001763
70165000,0.0324,0.013523,0.002678,0.000431,0.001763
70166000,0.0324,0.013523,0.002678,0.000431,0.001763
70167000,0.0324,0.013523,0.002678,0.000431,0.001645
70168000,0.0324,0.013523,0.002678,0.000431,0.001880
70169000,0.0324,0.013523,0.002678,0.000431,0.001763
70170000,0.0324,0.013523,0.002678,0.000431,0.001645
70171000,0.0324,0.013523,0.002678,0.000431,0.001763
70172000,0.0324,0.013523,0.002678,0.000431,0.001763
70173000,0.0324,0.013523,0.002678,0.000431,0.001880
70174000,0.0324,0.013523,0.002678,0.000431,0.001645
70175000,0.0324,0.013523,0.002678,0.000431,0.001763
70176000,0.0324,0.013523,0.002678,0.000431,0.001763
70177000,0.0324,0.013523,0.002678,0.000431,0.001763
70178000,0.0324,0.013523,0.002678,0.000431,0.001763
70179000,0.0324,0.013523,0.002678,0.000431,0.001763
70180000,0.0324,0.013523,0.002678,0.000431,0.001763
70181000,0.0324,0.013523,0.002678,0.000431,0.001763
70182000,0.0324,0.013523,0.002678,0.000431,0.001763
70183000,0.0324,0.013523,0.002678,0.000431,0.001763
70184000,0.0324,0.013523,0.002678,0.000431,0.001645
70185000,0.0324,0.013523,0.002678,0.000431,0.001880
70186000,0.0324,0.013523,0.002678,0.000431,0.001645
70187000,0.0324,0.013523,0.002678,0.000431,0.001880
70188000,0.0324,0.013523,0.002678,0.000431,0.001645
70189000,0.0324,0.013523,0.002678,0.000431,0.001763
70190000,0.0324,0.013523,0.002678,0.000431,0.001763
70191000,0.0324,0.013523,0.002678,0.000431,0.001763
70192000,0.0324,0.013523,0.002678,0.000431,0.001880
70193000,0.0324,0.013523,0.002678,0.000431,0.001645
70194000,0.0324,0.013523,0.002678,0.000431,0.003173
70195000,0.0324,0.013523,0.002678,0.000431,0.000940
70196000,0.0324,0.013523,0.002678,0.000431,0.000940
70197000,0.0324,0.013523,0.002678,0.000431,0.000705
70198000,0.0324,0.013523,0.002678,0.000431,0.000940
70199000,0.0324,0.013523,0.002678,0.000431,0.000940
70200000,0.0324,0.013523,0.002678,0.000431,0.000940
70201000,0.0324,0.013523,0.002678,0.000431,0.000940
70202000,0.0324,0.013523,0.002678,0.000431,0.000823
70203000,0.0324,0.013523,0.002678,0.000431,0.000823
70204000,0.0324,0.013523,0.002678,0.000431,0.000940
70205000,0.0324,0.013523,0.002678,0.000431,0.000823
70206000,0.0324,0.013523,0.002678,0.000431,0.000940
70207000,0.0324,0.013523,0.002678,0.000431,0.000823
70208000,0.0324,0.013523,0.002678,0.000431,0.000940
70209000,0.0324,0.013523,0.002678,0.000431,0.000823
70210000,0.0324,0.013523,0.002678,0.000431,0.000823
70211000,0.0324,0.013523,0.002678,0.000431,0.000940
70212000,0.0324,0.013523,0.002678,0.000431,0.000940
70213000,0.0324,0.013523,0.002678,0.000431,0.000940
70214000,0.0324,0.013523,0.002678,0.000431,0.000705
70215000,0.0324,0.013523,0.002678,0.000431,0.000940
70216000,0.0324,0.013523,0.002678,0.000431,0.000940
70217000,0.0324,0.013523,0.002678,0.000431,0.000823
70218000,0.0324,0.013523,0.002678,0.000431,0.000823
70219000,0.0324,0.013523,0.002678,0.000431,0.000940
70220000,0.0324,0.013523,0.002678,0.000431,0.000823
70221000,0.0324,0.013523,0.002678,0.000431,0.000940
70222000,0.0324,0.013523,0.002678,0.000431,0.000823
70223000,0.0324,0.013523,0.002678,0.000431,0.000940
70224000,0.0324,0.013523,0.002678,0.000431,0.000823
70225000,0.0324,0.013523,0.002678,0.000431,0.000823
70226000,0.0324,0.013523,0.002678,0.000431,0.000940
70227000,0.0324,0.013523,0.002678,0.000431,0.000940
70228000,0.0324,0.013523,0.002678,0.000431,0.000823
70229000,0.0324,0.013523,0.002678,0.000431,0.000823
70230000,0.0324,0.013523,0.002678,0.000431,0.000940
70231000,0.0324,0.013523,0.002678,0.000431,0.000940
70232000,0.0324,0.013523,0.002678,0.000431,0.000705
70233000,0.0324,0.013523,0.002678,0.000431,0.000940
70234000,0.0324,0.013523,0.002678,0.000431,0.000940
70235000,0.0324,0.013523,0.002678,0.000431,0.000940
70236000,0.0324,0.013523,0.002678,0.000431,0.000823
70237000,0.0324,0.013523,0.002678,0.000431,0.000823
70238000,0.0324,0.013523,0.002678,0.000431,0.000940
70239000,0.0324,0.013523,0.002678,0.000431,0.000823
70240000,0.0324,0.013523,0.002678,0.000431,0.000940
70241000,0.0324,0.013523,0.002678,0.000431,0.000823
70242000,0.0324,0.013523,0.002678,0.000431,0.000940
70243000,0.0324,0.013523,0.002678,0.000431,0.000823
70244000,0.0324,0.013523,0.002678,0.000431,0.000823
70245000,0.0324,0.013523,0.002678,0.000431,0.000940
70246000,0.0324,0.013523,0.002678,0.000431,0.000940
70247000,0.0324,0.013523,0.002678,0.000431,0.000823
70248000,0.0324,0.013523,0.002678,0.000431,0.000823
70249000,0.0324,0.013523,0.002678,0.000431,0.000940
70250000,0.0324,0.013523,0.002678,0.000431,0.000940
70251000,0.0324,0.013523,0.002678,0.000431,0.000705
70252000,0.0324,0.013523,0.002678,0.000431,0.000940
70253000,0.0324,0.013523,0.002678,0.000431,0.000940
70254000,0.0324,0.013523,0.002678,0.000431,0.000940
70255000,0.0324,0.013523,0.002678,0.000431,0.000705
70256000,0.0324,0.013523,0.002678,0.000431,0.000940
70257000,0.0324,0.013523,0.002678,0.000431,0.000940
70258000,0.0324,0.013523,0.002678,0.000431,0.000823
70259000,0.0324,0.013523,0.002678,0.000431,0.000823
70260000,0.0324,0.013523,0.002678,0.000431,0.000940
70261000,0.0324,0.013523,0.002678,0.000431,0.000823
70262000,0.0324,0.013523,0.002678,0.000431,0.000940
70263000,0.0324,0.013523,0.002678,0.000431,0.000823
70264000,0.0324,0.013523,0.002678,0.000431,0.000940
70265000,0.0324,0.013523,0.002678,0.000431,0.000823
70266000,0.0324,0.013523,0.002678,0.000431,0.000823
70267000,0.0324,0.013523,0.002678,0.000431,0.000940
70268000,0.0324,0.013523,0.002678,0.000431,0.001645
70269000,0.0324,0.013523,0.002678,0.000431,0.334133
70270000,0.0324,0.013523,0.002678,0.000431,0.683426
70271000,0.0324,0.013523,0.002678,0.000431,0.264203
70272000,0.0324,0.013523,0.002678,0.000431,0.133042
70273000,0.0324,0.013523,0.002678,0.000431,0.149143
70274000,0.0324,0.013523,0.002678,0.000431,0.579179
70275000,0.0324,0.013523,0.002678,0.000431,0.240580
70276000,0.0324,0.013523,0.002678,0.000431,0.302988
70277000,0.0324,0.013523,0.002678,0.000431,0.229297
70278000,0.0324,0.013523,0.002678,0.000431,0.151376
70279000,0.0324,0.013523,0.002678,0.000431,0.145852
70280000,0.0324,0.013523,0.002678,0.000431,0.211786
70281000,0.0324,0.013523,0.002678,0.000431,0.382789
70282000,0.0324,0.013523,0.002678,0.000431,0.058999
70283000,0.0324,0.013523,0.002678,0.000431,0.049949
70284000,0.0324,0.013523,0.002678,0.000431,0.050655
70285000,0.0324,0.013523,0.002678,0.000431,0.038784
70286000,0.0324,0.013523,0.002678,0.000431,0.039960
70287000,0.0324,0.013523,0.002678,0.000431,0.035846
70288000,0.0324,0.013523,0.002678,0.000431,0.029852
70289000,0.0324,0.013523,0.002678,0.000431,0.028559
70290000,0.0324,0.013523,0.002678,0.000431,0.028794
70291000,0.0324,0.013523,0.002678,0.000431,0.021743
70292000,0.0324,0.013523,0.002678,0.000431,0.018569
70293000,0.0324,0.013523,0.002678,0.000431,0.022448
70294000,0.0324,0.013523,0.002678,0.000431,0.021978
70295000,0.0324,0.013523,0.002678,0.000431,0.012458
70296000,0.0324,0.013523,0.002678,0.000431,0.012576
70297000,0.0324,0.013523,0.002678,0.000431,0.012458
70298000,0.0324,0.013523,0.002678,0.000431,0.012576
70299000,0.0324,0.013523,0.002678,0.000431,0.011518
70300000,0.0324,0.013523,0.002678,0.000431,0.011870
70301000,0.0324,0.013523,0.002678,0.000431,0.011988
70302000,0.0324,0.013523,0.002678,0.000431,0.012223
70303000,0.0324,0.013523,0.002678,0.000431,0.012693
70304000,0.0324,0.013523,0.002678,0.000431,0.009872
70305000,0.0324,0.013523,0.002678,0.000431,0.009990
70306000,0.0324,0.013523,0.002678,0.000431,0.012223
70307000,0.0324,0.013523,0.002678,0.000431,0.008227
70308000,0.0324,0.013523,0.002678,0.000431,0.008462
70309000,0.0324,0.013523,0.002678,0.000431,0.009050
70310000,0.0324,0.013523,0.002678,0.000431,0.007287
70311000,0.0324,0.013523,0.002678,0.000431,0.007287
70312000,0.0324,0.013523,0.002678,0.000431,0.006934
70313000,0.0324,0.013523,0.002678,0.000431,0.006582
70314000,0.0324,0.013523,0.002678,0.000431,0.006699
70315000,0.0324,0.013523,0.002678,0.000431,0.006699
70316000,0.0324,0.013523,0.002678,0.000431,0.006582
70317000,0.0324,0.013523,0.002678,0.000431,0.006582
70318000,0.0324,0.013523,0.002678,0.000431,0.008815
70319000,0.0324,0.013523,0.002678,0.000431,0.004819
70320000,0.0324,0.013523,0.002678,0.000431,0.005171
70321000,0.0324,0.013523,0.002678,0.000431,0.004819
70322000,0.0324,0.013523,0.002678,0.000431,0.006817
70323000,0.0324,0.013523,0.002678,0.000431,0.004231
70324000,0.0324,0.013523,0.002678,0.000431,0.003996
70325000,0.0324,0.013523,0.002678,0.000431,0.004113
70326000,0.0324,0.013523,0.002678,0.000431,0.004231
70327000,0.0324,0.013523,0.002678,0.000431,0.004349
70328000,0.0324,0.013523,0.002678,0.000431,0.003878
70329000,0.0324,0.013523,0.002678,0.000431,0.004349
70330000,0.0324,0.013523,0.002678,0.000431,0.004231
70331000,0.0324,0.013523,0.002678,0.000431,0.007757
70332000,0.0324,0.013523,0.002678,0.000431,0.002468
70333000,0.0324,0.013523,0.002678,0.000431,0.002703
70334000,0.0324,0.013523,0.002678,0.000431,0.002468
70335000,0.0324,0.013523,0.002678,0.000431,0.002233
70336000,0.0324,0.013523,0.002678,0.000431,0.002586
70337000,0.0324,0.013523,0.002678,0.000431,0.002586
70338000,0.0324,0.013523,0.002678,0.000431,0.002586
70339000,0.0324,0.013523,0.002678,0.000431,0.002233
70340000,0.0324,0.013523,0.002678,0.000431,0.002703
70341000,0.0324,0.013523,0.002678,0.000431,0.002468
70342000,0.0324,0.013523,0.002678,0.000431,0.002468
70343000,0.0324,0.013523,0.002678,0.000431,0.002468
70344000,0.0324,0.013523,0.002678,0.000431,0.002468
70345000,0.0324,0.013523,0.002678,0.000431,0.002586
70346000,0.0324,0.013523,0.002678,0.000431,0.002116
70347000,0.0324,0.013523,0.002678,0.000431,0.002821
70348000,0.0324,0.013523,0.002678,0.000431,0.002351
70349000,0.0324,0.013523,0.002678,0.000431,0.002586
70350000,0.0324,0.013523,0.002678,0.000431,0.002586
70351000,0.0324,0.013523,0.002678,0.000431,0.002351
70352000,0.0324,0.013523,0.002678,0.000431,0.002586
70353000,0.0324,0.013523,0.002678,0.000431,0.002351
70354000,0.0324,0.013523,0.002678,0.000431,0.002586
70355000,0.0324,0.013523,0.002678,0.000431,0.003878
70356000,0.0324,0.013523,0.002678,0.000431,0.000823
70357000,0.0324,0.013523,0.002678,0.000431,0.000823
70358000,0.0324,0.013523,0.002678,0.000431,0.014103
70359000,0.0324,0.013523,0.002678,0.000431,0.490328
70360000,0.0324,0.013523,0.002678,0.000431,0.596220
70361000,0.0324,0.013523,0.002678,0.000431,0.134452
70362000,0.0324,0.013523,0.002678,0.000431,0.130691
70363000,0.0324,0.013523,0.002678,0.000431,0.397715
70364000,0.0324,0.013523,0.002678,0.000431,0.393719
70365000,0.0324,0.013523,0.002678,0.000431,0.256446
70366000,0.0324,0.013523,0.002678,0.000431,0.343300
70367000,0.0324,0.013523,0.002678,0.000431,0.172649
70368000,0.0324,0.013523,0.002678,0.000431,0.141386
70369000,0.0324,0.013523,0.002678,0.000431,0.111417
70370000,0.0324,0.013523,0.002678,0.000431,0.323085
70371000,0.0324,0.013523,0.002678,0.000431,0.298992
70372000,0.0324,0.013523,0.002678,0.000431,0.057471
70373000,0.0324,0.013523,0.002678,0.000431,0.051007
70374000,0.0324,0.013523,0.002678,0.000431,0.040782
70375000,0.0324,0.013523,0.002678,0.000431,0.028207
70376000,0.0324,0.013523,0.002678,0.000431,0.032320
70377000,0.0324,0.013523,0.002678,0.000431,0.025504
70378000,0.0324,0.013523,0.002678,0.000431,0.021038
70379000,0.0324,0.013523,0.002678,0.000431,0.018217
70380000,0.0324,0.013523,0.002678,0.000431,0.009755
70381000,0.0324,0.013523,0.002678,0.000431,0.012340
