Cycle,Area(mm^2),PeakDynamic(W),SubthresholdLeakage(W),GateLeakage(W),RunTimeDynamic(W)
80000000,0.0324,0.013523,0.002678,0.000431,0.000705
80001000,0.0324,0.013523,0.002678,0.000431,0.000940
80002000,0.0324,0.013523,0.002678,0.000431,0.000940
80003000,0.0324,0.013523,0.002678,0.000431,0.000940
80004000,0.0324,0.013523,0.002678,0.000431,0.000705
80005000,0.0324,0.013523,0.002678,0.000431,0.000940
80006000,0.0324,0.013523,0.002678,0.000431,0.000940
80007000,0.0324,0.013523,0.002678,0.000431,0.000823
80008000,0.0324,0.013523,0.002678,0.000431,0.000823
80009000,0.0324,0.013523,0.002678,0.000431,0.000940
80010000,0.0324,0.013523,0.002678,0.000431,0.000940
80011000,0.0324,0.013523,0.002678,0.000431,0.000823
80012000,0.0324,0.013523,0.002678,0.000431,0.000823
80013000,0.0324,0.013523,0.002678,0.000431,0.000940
80014000,0.0324,0.013523,0.002678,0.000431,0.000823
80015000,0.0324,0.013523,0.002678,0.000431,0.000940
80016000,0.0324,0.013523,0.002678,0.000431,0.000823
80017000,0.0324,0.013523,0.002678,0.000431,0.000940
80018000,0.0324,0.013523,0.002678,0.000431,0.000823
80019000,0.0324,0.013523,0.002678,0.000431,0.000823
80020000,0.0324,0.013523,0.002678,0.000431,0.000940
80021000,0.0324,0.013523,0.002678,0.000431,0.000940
80022000,0.0324,0.013523,0.002678,0.000431,0.000823
80023000,0.0324,0.013523,0.002678,0.000431,0.000823
80024000,0.0324,0.013523,0.002678,0.000431,0.000940
80025000,0.0324,0.013523,0.002678,0.000431,0.000940
80026000,0.0324,0.013523,0.002678,0.000431,0.000823
80027000,0.0324,0.013523,0.002678,0.000431,0.000823
80028000,0.0324,0.013523,0.002678,0.000431,0.000940
80029000,0.0324,0.013523,0.002678,0.000431,0.000823
80030000,0.0324,0.013523,0.002678,0.000431,0.000940
80031000,0.0324,0.013523,0.002678,0.000431,0.000823
80032000,0.0324,0.013523,0.002678,0.000431,0.000940
80033000,0.0324,0.013523,0.002678,0.000431,0.000823
80034000,0.0324,0.013523,0.002678,0.000431,0.000823
80035000,0.0324,0.013523,0.002678,0.000431,0.000940
80036000,0.0324,0.013523,0.002678,0.000431,0.001763
80037000,0.0324,0.013523,0.002678,0.000431,0.275133
80038000,0.0324,0.013523,0.002678,0.000431,0.587758
80039000,0.0324,0.013523,0.002678,0.000431,0.244576
80040000,0.0324,0.013523,0.002678,0.000431,0.131161
80041000,0.0324,0.013523,0.002678,0.000431,0.134452
80042000,0.0324,0.013523,0.002678,0.000431,0.558964
80043000,0.0324,0.013523,0.002678,0.000431,0.247279
80044000,0.0324,0.013523,0.002678,0.000431,0.222598
80045000,0.0324,0.013523,0.002678,0.000431,0.295231
80046000,0.0324,0.013523,0.002678,0.000431,0.133747
80047000,0.0324,0.013523,0.002678,0.000431,0.148203
80048000,0.0324,0.013523,0.002678,0.000431,0.162659
80049000,0.0324,0.013523,0.002678,0.000431,0.119996
80050000,0.0324,0.013523,0.002678,0.000431,0.462121
80051000,0.0324,0.013523,0.002678,0.000431,0.034671
80052000,0.0324,0.013523,0.002678,0.000431,0.030675
80053000,0.0324,0.013523,0.002678,0.000431,0.024916
80054000,0.0324,0.013523,0.002678,0.000431,0.023976
80055000,0.0324,0.013523,0.002678,0.000431,0.018217
80056000,0.0324,0.013523,0.002678,0.000431,0.015044
80057000,0.0324,0.013523,0.002678,0.000431,0.015279
80058000,0.0324,0.013523,0.002678,0.000431,0.014926
80059000,0.0324,0.013523,0.002678,0.000431,0.014573
80060000,0.0324,0.013523,0.002678,0.000431,0.008227
80061000,0.0324,0.013523,0.002678,0.000431,0.008932
80062000,0.0324,0.013523,0.002678,0.000431,0.008109
80063000,0.0324,0.013523,0.002678,0.000431,0.007992
80064000,0.0324,0.013523,0.002678,0.000431,0.007052
80065000,0.0324,0.013523,0.002678,0.000431,0.007639
80066000,0.0324,0.013523,0.002678,0.000431,0.008932
80067000,0.0324,0.013523,0.002678,0.000431,0.006699
80068000,0.0324,0.013523,0.002678,0.000431,0.006817
80069000,0.0324,0.013523,0.002678,0.000431,0.006934
80070000,0.0324,0.013523,0.002678,0.000431,0.006582
80071000,0.0324,0.013523,0.002678,0.000431,0.006582
80072000,0.0324,0.013523,0.002678,0.000431,0.007052
80073000,0.0324,0.013523,0.002678,0.000431,0.006464
80074000,0.0324,0.013523,0.002678,0.000431,0.006934
80075000,0.0324,0.013523,0.002678,0.000431,0.006699
80076000,0.0324,0.013523,0.002678,0.000431,0.006817
80077000,0.0324,0.013523,0.002678,0.000431,0.006817
80078000,0.0324,0.013523,0.002678,0.000431,0.006934
80079000,0.0324,0.013523,0.002678,0.000431,0.009402
80080000,0.0324,0.013523,0.002678,0.000431,0.005876
80081000,0.0324,0.013523,0.002678,0.000431,0.005994
80082000,0.0324,0.013523,0.002678,0.000431,0.005641
80083000,0.0324,0.013523,0.002678,0.000431,0.005994
80084000,0.0324,0.013523,0.002678,0.000431,0.005759
80085000,0.0324,0.013523,0.002678,0.000431,0.006111
80086000,0.0324,0.013523,0.002678,0.000431,0.006464
80087000,0.0324,0.013523,0.002678,0.000431,0.005524
80088000,0.0324,0.013523,0.002678,0.000431,0.005406
80089000,0.0324,0.013523,0.002678,0.000431,0.004584
80090000,0.0324,0.013523,0.002678,0.000431,0.005289
80091000,0.0324,0.013523,0.002678,0.000431,0.004231
80092000,0.0324,0.013523,0.002678,0.000431,0.005641
80093000,0.0324,0.013523,0.002678,0.000431,0.004936
80094000,0.0324,0.013523,0.002678,0.000431,0.003056
80095000,0.0324,0.013523,0.002678,0.000431,0.003761
80096000,0.0324,0.013523,0.002678,0.000431,0.003408
80097000,0.0324,0.013523,0.002678,0.000431,0.003526
80098000,0.0324,0.013523,0.002678,0.000431,0.003291
80099000,0.0324,0.013523,0.002678,0.000431,0.003526
80100000,0.0324,0.013523,0.002678,0.000431,0.003526
80101000,0.0324,0.013523,0.002678,0.000431,0.003408
80102000,0.0324,0.013523,0.002678,0.000431,0.003526
80103000,0.0324,0.013523,0.002678,0.000431,0.003408
80104000,0.0324,0.013523,0.002678,0.000431,0.003526
80105000,0.0324,0.013523,0.002678,0.000431,0.003408
80106000,0.0324,0.013523,0.002678,0.000431,0.003526
80107000,0.0324,0.013523,0.002678,0.000431,0.003408
80108000,0.0324,0.013523,0.002678,0.000431,0.003408
80109000,0.0324,0.013523,0.002678,0.000431,0.003643
80110000,0.0324,0.013523,0.002678,0.000431,0.003408
80111000,0.0324,0.013523,0.002678,0.000431,0.003643
80112000,0.0324,0.013523,0.002678,0.000431,0.003173
80113000,0.0324,0.013523,0.002678,0.000431,0.003526
80114000,0.0324,0.013523,0.002678,0.000431,0.003643
80115000,0.0324,0.013523,0.002678,0.000431,0.003526
80116000,0.0324,0.013523,0.002678,0.000431,0.003526
80117000,0.0324,0.013523,0.002678,0.000431,0.003173
80118000,0.0324,0.013523,0.002678,0.000431,0.003643
80119000,0.0324,0.013523,0.002678,0.000431,0.003526
80120000,0.0324,0.013523,0.002678,0.000431,0.005054
80121000,0.0324,0.013523,0.002678,0.000431,0.002586
80122000,0.0324,0.013523,0.002678,0.000431,0.002586
80123000,0.0324,0.013523,0.002678,0.000431,0.002468
80124000,0.0324,0.013523,0.002678,0.000431,0.002586
80125000,0.0324,0.013523,0.002678,0.000431,0.002821
80126000,0.0324,0.013523,0.002678,0.000431,0.002468
80127000,0.0324,0.013523,0.002678,0.000431,0.002468
80128000,0.0324,0.013523,0.002678,0.000431,0.002703
80129000,0.0324,0.013523,0.002678,0.000431,0.002703
80130000,0.0324,0.013523,0.002678,0.000431,0.002468
80131000,0.0324,0.013523,0.002678,0.000431,0.002468
80132000,0.0324,0.013523,0.002678,0.000431,0.002703
80133000,0.0324,0.013523,0.002678,0.000431,0.002703
80134000,0.0324,0.013523,0.002678,0.000431,0.002586
80135000,0.0324,0.013523,0.002678,0.000431,0.002351
80136000,0.0324,0.013523,0.002678,0.000431,0.002821
80137000,0.0324,0.013523,0.002678,0.000431,0.002468
80138000,0.0324,0.013523,0.002678,0.000431,0.002703
80139000,0.0324,0.013523,0.002678,0.000431,0.002586
80140000,0.0324,0.013523,0.002678,0.000431,0.002586
80141000,0.0324,0.013523,0.002678,0.000431,0.002586
80142000,0.0324,0.013523,0.002678,0.000431,0.002468
80143000,0.0324,0.013523,0.002678,0.000431,0.002703
80144000,0.0324,0.013523,0.002678,0.000431,0.002703
80145000,0.0324,0.013523,0.002678,0.000431,0.002351
80146000,0.0324,0.013523,0.002678,0.000431,0.002586
80147000,0.0324,0.013523,0.002678,0.000431,0.002703
80148000,0.0324,0.013523,0.002678,0.000431,0.002821
80149000,0.0324,0.013523,0.002678,0.000431,0.002233
80150000,0.0324,0.013523,0.002678,0.000431,0.002703
80151000,0.0324,0.013523,0.002678,0.000431,0.002703
80152000,0.0324,0.013523,0.002678,0.000431,0.002586
80153000,0.0324,0.013523,0.002678,0.000431,0.002468
80154000,0.0324,0.013523,0.002678,0.000431,0.002586
80155000,0.0324,0.013523,0.002678,0.000431,0.002703
80156000,0.0324,0.013523,0.002678,0.000431,0.002586
80157000,0.0324,0.013523,0.002678,0.000431,0.002586
80158000,0.0324,0.013523,0.002678,0.000431,0.002468
80159000,0.0324,0.013523,0.002678,0.000431,0.002703
80160000,0.0324,0.013523,0.002678,0.000431,0.002468
80161000,0.0324,0.013523,0.002678,0.000431,0.002703
80162000,0.0324,0.013523,0.002678,0.000431,0.002703
80163000,0.0324,0.013523,0.002678,0.000431,0.002468
80164000,0.0324,0.013523,0.002678,0.000431,0.002586
80165000,0.0324,0.013523,0.002678,0.000431,0.002468
80166000,0.0324,0.013523,0.002678,0.000431,0.002821
80167000,0.0324,0.013523,0.002678,0.000431,0.002586
80168000,0.0324,0.013523,0.002678,0.000431,0.002468
80169000,0.0324,0.013523,0.002678,0.000431,0.002586
80170000,0.0324,0.013523,0.002678,0.000431,0.002703
80171000,0.0324,0.013523,0.002678,0.000431,0.002703
80172000,0.0324,0.013523,0.002678,0.000431,0.002233
80173000,0.0324,0.013523,0.002678,0.000431,0.002821
80174000,0.0324,0.013523,0.002678,0.000431,0.002703
80175000,0.0324,0.013523,0.002678,0.000431,0.002586
80176000,0.0324,0.013523,0.002678,0.000431,0.003408
80177000,0.0324,0.013523,0.002678,0.000431,0.001763
80178000,0.0324,0.013523,0.002678,0.000431,0.001645
80179000,0.0324,0.013523,0.002678,0.000431,0.001763
80180000,0.0324,0.013523,0.002678,0.000431,0.001763
80181000,0.0324,0.013523,0.002678,0.000431,0.002351
80182000,0.0324,0.013523,0.002678,0.000431,0.001998
80183000,0.0324,0.013523,0.002678,0.000431,0.000823
80184000,0.0324,0.013523,0.002678,0.000431,0.000823
80185000,0.0324,0.013523,0.002678,0.000431,0.000940
80186000,0.0324,0.013523,0.002678,0.000431,0.000940
80187000,0.0324,0.013523,0.002678,0.000431,0.000705
80188000,0.0324,0.013523,0.002678,0.000431,0.000940
80189000,0.0324,0.013523,0.002678,0.000431,0.000940
80190000,0.0324,0.013523,0.002678,0.000431,0.000940
80191000,0.0324,0.013523,0.002678,0.000431,0.000705
80192000,0.0324,0.013523,0.002678,0.000431,0.000940
80193000,0.0324,0.013523,0.002678,0.000431,0.000940
80194000,0.0324,0.013523,0.002678,0.000431,0.000823
80195000,0.0324,0.013523,0.002678,0.000431,0.000823
80196000,0.0324,0.013523,0.002678,0.000431,0.000940
80197000,0.0324,0.013523,0.002678,0.000431,0.000940
80198000,0.0324,0.013523,0.002678,0.000431,0.000823
80199000,0.0324,0.013523,0.002678,0.000431,0.000823
80200000,0.0324,0.013523,0.002678,0.000431,0.000940
80201000,0.0324,0.013523,0.002678,0.000431,0.000823
80202000,0.0324,0.013523,0.002678,0.000431,0.000940
80203000,0.0324,0.013523,0.002678,0.000431,0.000823
80204000,0.0324,0.013523,0.002678,0.000431,0.000940
80205000,0.0324,0.013523,0.002678,0.000431,0.000823
80206000,0.0324,0.013523,0.002678,0.000431,0.000823
80207000,0.0324,0.013523,0.002678,0.000431,0.000940
80208000,0.0324,0.013523,0.002678,0.000431,0.000940
80209000,0.0324,0.013523,0.002678,0.000431,0.000823
80210000,0.0324,0.013523,0.002678,0.000431,0.000823
80211000,0.0324,0.013523,0.002678,0.000431,0.000940
80212000,0.0324,0.013523,0.002678,0.000431,0.000940
80213000,0.0324,0.013523,0.002678,0.000431,0.000823
80214000,0.0324,0.013523,0.002678,0.000431,0.000823
80215000,0.0324,0.013523,0.002678,0.000431,0.000940
80216000,0.0324,0.013523,0.002678,0.000431,0.000940
80217000,0.0324,0.013523,0.002678,0.000431,0.149731
80218000,0.0324,0.013523,0.002678,0.000431,0.414874
80219000,0.0324,0.013523,0.002678,0.000431,0.540630
80220000,0.0324,0.013523,0.002678,0.000431,0.134922
80221000,0.0324,0.013523,0.002678,0.000431,0.131161
80222000,0.0324,0.013523,0.002678,0.000431,0.569071
80223000,0.0324,0.013523,0.002678,0.000431,0.219660
80224000,0.0324,0.013523,0.002678,0.000431,0.275486
80225000,0.0324,0.013523,0.002678,0.000431,0.341654
80226000,0.0324,0.013523,0.002678,0.000431,0.141034
80227000,0.0324,0.013523,0.002678,0.000431,0.136333
80228000,0.0324,0.013523,0.002678,0.000431,0.118586
80229000,0.0324,0.013523,0.002678,0.000431,0.287944
80230000,0.0324,0.013523,0.002678,0.000431,0.320382
80231000,0.0324,0.013523,0.002678,0.000431,0.047481
80232000,0.0324,0.013523,0.002678,0.000431,0.034318
80233000,0.0324,0.013523,0.002678,0.000431,0.029382
80234000,0.0324,0.013523,0.002678,0.000431,0.027972
80235000,0.0324,0.013523,0.002678,0.000431,0.028207
80236000,0.0324,0.013523,0.002678,0.000431,0.025269
80237000,0.0324,0.013523,0.002678,0.000431,0.024211
80238000,0.0324,0.013523,0.002678,0.000431,0.019862
80239000,0.0324,0.013523,0.002678,0.000431,0.017982
80240000,0.0324,0.013523,0.002678,0.000431,0.019627
80241000,0.0324,0.013523,0.002678,0.000431,0.018099
80242000,0.0324,0.013523,0.002678,0.000431,0.016101
80243000,0.0324,0.013523,0.002678,0.000431,0.017277
80244000,0.0324,0.013523,0.002678,0.000431,0.013633
80245000,0.0324,0.013523,0.002678,0.000431,0.010695
80246000,0.0324,0.013523,0.002678,0.000431,0.009050
80247000,0.0324,0.013523,0.002678,0.000431,0.011165
80248000,0.0324,0.013523,0.002678,0.000431,0.006934
80249000,0.0324,0.013523,0.002678,0.000431,0.006934
80250000,0.0324,0.013523,0.002678,0.000431,0.007522
80251000,0.0324,0.013523,0.002678,0.000431,0.005759
80252000,0.0324,0.013523,0.002678,0.000431,0.005524
80253000,0.0324,0.013523,0.002678,0.000431,0.006229
80254000,0.0324,0.013523,0.002678,0.000431,0.004936
80255000,0.0324,0.013523,0.002678,0.000431,0.005524
80256000,0.0324,0.013523,0.002678,0.000431,0.004466
80257000,0.0324,0.013523,0.002678,0.000431,0.005406
80258000,0.0324,0.013523,0.002678,0.000431,0.004936
80259000,0.0324,0.013523,0.002678,0.000431,0.005054
80260000,0.0324,0.013523,0.002678,0.000431,0.005171
80261000,0.0324,0.013523,0.002678,0.000431,0.007992
80262000,0.0324,0.013523,0.002678,0.000431,0.004466
80263000,0.0324,0.013523,0.002678,0.000431,0.004113
80264000,0.0324,0.013523,0.002678,0.000431,0.004231
80265000,0.0324,0.013523,0.002678,0.000431,0.004231
80266000,0.0324,0.013523,0.002678,0.000431,0.006582
80267000,0.0324,0.013523,0.002678,0.000431,0.003291
80268000,0.0324,0.013523,0.002678,0.000431,0.003408
80269000,0.0324,0.013523,0.002678,0.000431,0.003408
80270000,0.0324,0.013523,0.002678,0.000431,0.003291
80271000,0.0324,0.013523,0.002678,0.000431,0.003643
80272000,0.0324,0.013523,0.002678,0.000431,0.003056
80273000,0.0324,0.013523,0.002678,0.000431,0.003526
80274000,0.0324,0.013523,0.002678,0.000431,0.003056
80275000,0.0324,0.013523,0.002678,0.000431,0.003526
80276000,0.0324,0.013523,0.002678,0.000431,0.003526
80277000,0.0324,0.013523,0.002678,0.000431,0.003056
80278000,0.0324,0.013523,0.002678,0.000431,0.003526
80279000,0.0324,0.013523,0.002678,0.000431,0.003056
80280000,0.0324,0.013523,0.002678,0.000431,0.003643
80281000,0.0324,0.013523,0.002678,0.000431,0.003291
80282000,0.0324,0.013523,0.002678,0.000431,0.003408
80283000,0.0324,0.013523,0.002678,0.000431,0.003408
80284000,0.0324,0.013523,0.002678,0.000431,0.003173
80285000,0.0324,0.013523,0.002678,0.000431,0.003408
80286000,0.0324,0.013523,0.002678,0.000431,0.003291
80287000,0.0324,0.013523,0.002678,0.000431,0.003291
80288000,0.0324,0.013523,0.002678,0.000431,0.003408
80289000,0.0324,0.013523,0.002678,0.000431,0.003526
80290000,0.0324,0.013523,0.002678,0.000431,0.003173
80291000,0.0324,0.013523,0.002678,0.000431,0.003291
80292000,0.0324,0.013523,0.002678,0.000431,0.003408
80293000,0.0324,0.013523,0.002678,0.000431,0.003408
80294000,0.0324,0.013523,0.002678,0.000431,0.003291
80295000,0.0324,0.013523,0.002678,0.000431,0.003291
80296000,0.0324,0.013523,0.002678,0.000431,0.003291
80297000,0.0324,0.013523,0.002678,0.000431,0.003291
80298000,0.0324,0.013523,0.002678,0.000431,0.003526
80299000,0.0324,0.013523,0.002678,0.000431,0.003056
80300000,0.0324,0.013523,0.002678,0.000431,0.003526
80301000,0.0324,0.013523,0.002678,0.000431,0.003408
80302000,0.0324,0.013523,0.002678,0.000431,0.003173
80303000,0.0324,0.013523,0.002678,0.000431,0.003526
80304000,0.0324,0.013523,0.002678,0.000431,0.003173
80305000,0.0324,0.013523,0.002678,0.000431,0.003408
80306000,0.0324,0.013523,0.002678,0.000431,0.003526
80307000,0.0324,0.013523,0.002678,0.000431,0.003056
80308000,0.0324,0.013523,0.002678,0.000431,0.003643
80309000,0.0324,0.013523,0.002678,0.000431,0.002938
80310000,0.0324,0.013523,0.002678,0.000431,0.003643
80311000,0.0324,0.013523,0.002678,0.000431,0.003408
80312000,0.0324,0.013523,0.002678,0.000431,0.003173
80313000,0.0324,0.013523,0.002678,0.000431,0.005171
80314000,0.0324,0.013523,0.002678,0.000431,0.002468
80315000,0.0324,0.013523,0.002678,0.000431,0.002586
80316000,0.0324,0.013523,0.002678,0.000431,0.004701
80317000,0.0324,0.013523,0.002678,0.000431,0.001763
80318000,0.0324,0.013523,0.002678,0.000431,0.001645
80319000,0.0324,0.013523,0.002678,0.000431,0.001645
80320000,0.0324,0.013523,0.002678,0.000431,0.001763
80321000,0.0324,0.013523,0.002678,0.000431,0.001528
80322000,0.0324,0.013523,0.002678,0.000431,0.001763
80323000,0.0324,0.013523,0.002678,0.000431,0.001645
80324000,0.0324,0.013523,0.002678,0.000431,0.001763
80325000,0.0324,0.013523,0.002678,0.000431,0.001528
80326000,0.0324,0.013523,0.002678,0.000431,0.001763
80327000,0.0324,0.013523,0.002678,0.000431,0.001528
80328000,0.0324,0.013523,0.002678,0.000431,0.001763
80329000,0.0324,0.013523,0.002678,0.000431,0.001880
80330000,0.0324,0.013523,0.002678,0.000431,0.001410
80331000,0.0324,0.013523,0.002678,0.000431,0.001880
80332000,0.0324,0.013523,0.002678,0.000431,0.001410
80333000,0.0324,0.013523,0.002678,0.000431,0.001880
80334000,0.0324,0.013523,0.002678,0.000431,0.001763
80335000,0.0324,0.013523,0.002678,0.000431,0.001528
80336000,0.0324,0.013523,0.002678,0.000431,0.001763
80337000,0.0324,0.013523,0.002678,0.000431,0.001763
80338000,0.0324,0.013523,0.002678,0.000431,0.002351
80339000,0.0324,0.013523,0.002678,0.000431,0.001763
80340000,0.0324,0.013523,0.002678,0.000431,0.001763
80341000,0.0324,0.013523,0.002678,0.000431,0.329431
80342000,0.0324,0.013523,0.002678,0.000431,0.663917
80343000,0.0324,0.013523,0.002678,0.000431,0.199915
80344000,0.0324,0.013523,0.002678,0.000431,0.132102
80345000,0.0324,0.013523,0.002678,0.000431,0.157135
80346000,0.0324,0.013523,0.002678,0.000431,0.597748
80347000,0.0324,0.013523,0.002678,0.000431,0.249630
80348000,0.0324,0.013523,0.002678,0.000431,0.299932
80349000,0.0324,0.013523,0.002678,0.000431,0.226477
80350000,0.0324,0.013523,0.002678,0.000431,0.152552
80351000,0.0324,0.013523,0.002678,0.000431,0.140094
80352000,0.0324,0.013523,0.002678,0.000431,0.217075
80353000,0.0324,0.013523,0.002678,0.000431,0.374210
80354000,0.0324,0.013523,0.002678,0.000431,0.043250
80355000,0.0324,0.013523,0.002678,0.000431,0.033613
80356000,0.0324,0.013523,0.002678,0.000431,0.025269
80357000,0.0324,0.013523,0.002678,0.000431,0.020097
80358000,0.0324,0.013523,0.002678,0.000431,0.017394
80359000,0.0324,0.013523,0.002678,0.000431,0.019392
80360000,0.0324,0.013523,0.002678,0.000431,0.016336
80361000,0.0324,0.013523,0.002678,0.000431,0.016689
80362000,0.0324,0.013523,0.002678,0.000431,0.019157
80363000,0.0324,0.013523,0.002678,0.000431,0.016807
80364000,0.0324,0.013523,0.002678,0.000431,0.015631
80365000,0.0324,0.013523,0.002678,0.000431,0.018452
80366000,0.0324,0.013523,0.002678,0.000431,0.014103
80367000,0.0324,0.013523,0.002678,0.000431,0.013398
80368000,0.0324,0.013523,0.002678,0.000431,0.014926
80369000,0.0324,0.013523,0.002678,0.000431,0.012223
80370000,0.0324,0.013523,0.002678,0.000431,0.012458
80371000,0.0324,0.013523,0.002678,0.000431,0.013046
80372000,0.0324,0.013523,0.002678,0.000431,0.011870
80373000,0.0324,0.013523,0.002678,0.000431,0.013163
80374000,0.0324,0.013523,0.002678,0.000431,0.013046
80375000,0.0324,0.013523,0.002678,0.000431,0.012693
80376000,0.0324,0.013523,0.002678,0.000431,0.011753
80377000,0.0324,0.013523,0.002678,0.000431,0.011518
80378000,0.0324,0.013523,0.002678,0.000431,0.012458
80379000,0.0324,0.013523,0.002678,0.000431,0.011635
80380000,0.0324,0.013523,0.002678,0.000431,0.011048
80381000,0.0324,0.013523,0.002678,0.000431,0.008697
