Cycle,Area(mm^2),PeakDynamic(W),SubthresholdLeakage(W),GateLeakage(W),RunTimeDynamic(W)
49000000,0.0324,0.013523,0.002678,0.000431,0.004113
49001000,0.0324,0.013523,0.002678,0.000431,0.004231
49002000,0.0324,0.013523,0.002678,0.000431,0.004231
49003000,0.0324,0.013523,0.002678,0.000431,0.004231
49004000,0.0324,0.013523,0.002678,0.000431,0.004349
49005000,0.0324,0.013523,0.002678,0.000431,0.003996
49006000,0.0324,0.013523,0.002678,0.000431,0.004349
49007000,0.0324,0.013523,0.002678,0.000431,0.004231
49008000,0.0324,0.013523,0.002678,0.000431,0.004349
49009000,0.0324,0.013523,0.002678,0.000431,0.003996
49010000,0.0324,0.013523,0.002678,0.000431,0.004231
49011000,0.0324,0.013523,0.002678,0.000431,0.004466
49012000,0.0324,0.013523,0.002678,0.000431,0.003996
49013000,0.0324,0.013523,0.002678,0.000431,0.004231
49014000,0.0324,0.013523,0.002678,0.000431,0.004349
49015000,0.0324,0.013523,0.002678,0.000431,0.004349
49016000,0.0324,0.013523,0.002678,0.000431,0.004113
49017000,0.0324,0.013523,0.002678,0.000431,0.003878
49018000,0.0324,0.013523,0.002678,0.000431,0.006464
49019000,0.0324,0.013523,0.002678,0.000431,0.003291
49020000,0.0324,0.013523,0.002678,0.000431,0.003291
49021000,0.0324,0.013523,0.002678,0.000431,0.003526
49022000,0.0324,0.013523,0.002678,0.000431,0.003056
49023000,0.0324,0.013523,0.002678,0.000431,0.003408
49024000,0.0324,0.013523,0.002678,0.000431,0.003408
49025000,0.0324,0.013523,0.002678,0.000431,0.003408
49026000,0.0324,0.013523,0.002678,0.000431,0.003291
49027000,0.0324,0.013523,0.002678,0.000431,0.003408
49028000,0.0324,0.013523,0.002678,0.000431,0.003408
49029000,0.0324,0.013523,0.002678,0.000431,0.003408
49030000,0.0324,0.013523,0.002678,0.000431,0.003291
49031000,0.0324,0.013523,0.002678,0.000431,0.003291
49032000,0.0324,0.013523,0.002678,0.000431,0.003408
49033000,0.0324,0.013523,0.002678,0.000431,0.003173
49034000,0.0324,0.013523,0.002678,0.000431,0.003408
49035000,0.0324,0.013523,0.002678,0.000431,0.003408
49036000,0.0324,0.013523,0.002678,0.000431,0.003408
49037000,0.0324,0.013523,0.002678,0.000431,0.003408
49038000,0.0324,0.013523,0.002678,0.000431,0.003291
49039000,0.0324,0.013523,0.002678,0.000431,0.003173
49040000,0.0324,0.013523,0.002678,0.000431,0.003291
49041000,0.0324,0.013523,0.002678,0.000431,0.003643
49042000,0.0324,0.013523,0.002678,0.000431,0.003291
49043000,0.0324,0.013523,0.002678,0.000431,0.006111
49044000,0.0324,0.013523,0.002678,0.000431,0.002821
49045000,0.0324,0.013523,0.002678,0.000431,0.001645
49046000,0.0324,0.013523,0.002678,0.000431,0.001763
49047000,0.0324,0.013523,0.002678,0.000431,0.001763
49048000,0.0324,0.013523,0.002678,0.000431,0.001645
49049000,0.0324,0.013523,0.002678,0.000431,0.001645
49050000,0.0324,0.013523,0.002678,0.000431,0.001645
49051000,0.0324,0.013523,0.002678,0.000431,0.001763
49052000,0.0324,0.013523,0.002678,0.000431,0.001645
49053000,0.0324,0.013523,0.002678,0.000431,0.001645
49054000,0.0324,0.013523,0.002678,0.000431,0.001763
49055000,0.0324,0.013523,0.002678,0.000431,0.001528
49056000,0.0324,0.013523,0.002678,0.000431,0.001763
49057000,0.0324,0.013523,0.002678,0.000431,0.001763
49058000,0.0324,0.013523,0.002678,0.000431,0.001528
49059000,0.0324,0.013523,0.002678,0.000431,0.001763
49060000,0.0324,0.013523,0.002678,0.000431,0.001645
49061000,0.0324,0.013523,0.002678,0.000431,0.001763
49062000,0.0324,0.013523,0.002678,0.000431,0.001410
49063000,0.0324,0.013523,0.002678,0.000431,0.001880
49064000,0.0324,0.013523,0.002678,0.000431,0.001763
49065000,0.0324,0.013523,0.002678,0.000431,0.001528
49066000,0.0324,0.013523,0.002678,0.000431,0.001763
49067000,0.0324,0.013523,0.002678,0.000431,0.001528
49068000,0.0324,0.013523,0.002678,0.000431,0.001763
49069000,0.0324,0.013523,0.002678,0.000431,0.001645
49070000,0.0324,0.013523,0.002678,0.000431,0.001645
49071000,0.0324,0.013523,0.002678,0.000431,0.001645
49072000,0.0324,0.013523,0.002678,0.000431,0.001763
49073000,0.0324,0.013523,0.002678,0.000431,0.001880
49074000,0.0324,0.013523,0.002678,0.000431,0.001528
49075000,0.0324,0.013523,0.002678,0.000431,0.001763
49076000,0.0324,0.013523,0.002678,0.000431,0.001763
49077000,0.0324,0.013523,0.002678,0.000431,0.001645
49078000,0.0324,0.013523,0.002678,0.000431,0.001763
49079000,0.0324,0.013523,0.002678,0.000431,0.001645
49080000,0.0324,0.013523,0.002678,0.000431,0.001763
49081000,0.0324,0.013523,0.002678,0.000431,0.001763
49082000,0.0324,0.013523,0.002678,0.000431,0.001528
49083000,0.0324,0.013523,0.002678,0.000431,0.001763
49084000,0.0324,0.013523,0.002678,0.000431,0.001645
49085000,0.0324,0.013523,0.002678,0.000431,0.001645
49086000,0.0324,0.013523,0.002678,0.000431,0.001763
49087000,0.0324,0.013523,0.002678,0.000431,0.001528
49088000,0.0324,0.013523,0.002678,0.000431,0.001763
49089000,0.0324,0.013523,0.002678,0.000431,0.001763
49090000,0.0324,0.013523,0.002678,0.000431,0.001645
49091000,0.0324,0.013523,0.002678,0.000431,0.001645
49092000,0.0324,0.013523,0.002678,0.000431,0.001645
49093000,0.0324,0.013523,0.002678,0.000431,0.001645
49094000,0.0324,0.013523,0.002678,0.000431,0.001763
49095000,0.0324,0.013523,0.002678,0.000431,0.001528
49096000,0.0324,0.013523,0.002678,0.000431,0.001763
49097000,0.0324,0.013523,0.002678,0.000431,0.001763
49098000,0.0324,0.013523,0.002678,0.000431,0.001645
49099000,0.0324,0.013523,0.002678,0.000431,0.001645
49100000,0.0324,0.013523,0.002678,0.000431,0.001645
49101000,0.0324,0.013523,0.002678,0.000431,0.001763
49102000,0.0324,0.013523,0.002678,0.000431,0.001645
49103000,0.0324,0.013523,0.002678,0.000431,0.001645
49104000,0.0324,0.013523,0.002678,0.000431,0.001645
49105000,0.0324,0.013523,0.002678,0.000431,0.001528
49106000,0.0324,0.013523,0.002678,0.000431,0.001880
49107000,0.0324,0.013523,0.002678,0.000431,0.001410
49108000,0.0324,0.013523,0.002678,0.000431,0.001880
49109000,0.0324,0.013523,0.002678,0.000431,0.001645
49110000,0.0324,0.013523,0.002678,0.000431,0.001645
49111000,0.0324,0.013523,0.002678,0.000431,0.001763
49112000,0.0324,0.013523,0.002678,0.000431,0.001645
49113000,0.0324,0.013523,0.002678,0.000431,0.001763
49114000,0.0324,0.013523,0.002678,0.000431,0.001410
49115000,0.0324,0.013523,0.002678,0.000431,0.001763
49116000,0.0324,0.013523,0.002678,0.000431,0.001880
49117000,0.0324,0.013523,0.002678,0.000431,0.001763
49118000,0.0324,0.013523,0.002678,0.000431,0.001528
49119000,0.0324,0.013523,0.002678,0.000431,0.001763
49120000,0.0324,0.013523,0.002678,0.000431,0.001763
49121000,0.0324,0.013523,0.002678,0.000431,0.001645
49122000,0.0324,0.013523,0.002678,0.000431,0.001880
49123000,0.0324,0.013523,0.002678,0.000431,0.001528
49124000,0.0324,0.013523,0.002678,0.000431,0.001880
49125000,0.0324,0.013523,0.002678,0.000431,0.001528
49126000,0.0324,0.013523,0.002678,0.000431,0.001763
49127000,0.0324,0.013523,0.002678,0.000431,0.001763
49128000,0.0324,0.013523,0.002678,0.000431,0.001528
49129000,0.0324,0.013523,0.002678,0.000431,0.001880
49130000,0.0324,0.013523,0.002678,0.000431,0.001410
49131000,0.0324,0.013523,0.002678,0.000431,0.001880
49132000,0.0324,0.013523,0.002678,0.000431,0.001645
49133000,0.0324,0.013523,0.002678,0.000431,0.001645
49134000,0.0324,0.013523,0.002678,0.000431,0.001528
49135000,0.0324,0.013523,0.002678,0.000431,0.001763
49136000,0.0324,0.013523,0.002678,0.000431,0.001880
49137000,0.0324,0.013523,0.002678,0.000431,0.001410
49138000,0.0324,0.013523,0.002678,0.000431,0.001880
49139000,0.0324,0.013523,0.002678,0.000431,0.001528
49140000,0.0324,0.013523,0.002678,0.000431,0.001763
49141000,0.0324,0.013523,0.002678,0.000431,0.001645
49142000,0.0324,0.013523,0.002678,0.000431,0.001645
49143000,0.0324,0.013523,0.002678,0.000431,0.001880
49144000,0.0324,0.013523,0.002678,0.000431,0.001410
49145000,0.0324,0.013523,0.002678,0.000431,0.001880
49146000,0.0324,0.013523,0.002678,0.000431,0.001645
49147000,0.0324,0.013523,0.002678,0.000431,0.001645
49148000,0.0324,0.013523,0.002678,0.000431,0.001528
49149000,0.0324,0.013523,0.002678,0.000431,0.001763
49150000,0.0324,0.013523,0.002678,0.000431,0.001998
49151000,0.0324,0.013523,0.002678,0.000431,0.001528
49152000,0.0324,0.013523,0.002678,0.000431,0.001880
49153000,0.0324,0.013523,0.002678,0.000431,0.001763
49154000,0.0324,0.013523,0.002678,0.000431,0.001528
49155000,0.0324,0.013523,0.002678,0.000431,0.001763
49156000,0.0324,0.013523,0.002678,0.000431,0.001763
49157000,0.0324,0.013523,0.002678,0.000431,0.001528
49158000,0.0324,0.013523,0.002678,0.000431,0.001763
49159000,0.0324,0.013523,0.002678,0.000431,0.001645
49160000,0.0324,0.013523,0.002678,0.000431,0.001645
49161000,0.0324,0.013523,0.002678,0.000431,0.001763
49162000,0.0324,0.013523,0.002678,0.000431,0.001645
49163000,0.0324,0.013523,0.002678,0.000431,0.001763
49164000,0.0324,0.013523,0.002678,0.000431,0.001528
49165000,0.0324,0.013523,0.002678,0.000431,0.001763
49166000,0.0324,0.013523,0.002678,0.000431,0.001763
49167000,0.0324,0.013523,0.002678,0.000431,0.001528
49168000,0.0324,0.013523,0.002678,0.000431,0.001763
49169000,0.0324,0.013523,0.002678,0.000431,0.001528
49170000,0.0324,0.013523,0.002678,0.000431,0.001880
49171000,0.0324,0.013523,0.002678,0.000431,0.001528
49172000,0.0324,0.013523,0.002678,0.000431,0.001763
49173000,0.0324,0.013523,0.002678,0.000431,0.001763
49174000,0.0324,0.013523,0.002678,0.000431,0.001528
49175000,0.0324,0.013523,0.002678,0.000431,0.001645
49176000,0.0324,0.013523,0.002678,0.000431,0.001763
49177000,0.0324,0.013523,0.002678,0.000431,0.001763
49178000,0.0324,0.013523,0.002678,0.000431,0.001528
49179000,0.0324,0.013523,0.002678,0.000431,0.001763
49180000,0.0324,0.013523,0.002678,0.000431,0.001528
49181000,0.0324,0.013523,0.002678,0.000431,0.001763
49182000,0.0324,0.013523,0.002678,0.000431,0.001763
49183000,0.0324,0.013523,0.002678,0.000431,0.001528
49184000,0.0324,0.013523,0.002678,0.000431,0.001880
49185000,0.0324,0.013523,0.002678,0.000431,0.001528
49186000,0.0324,0.013523,0.002678,0.000431,0.001763
49187000,0.0324,0.013523,0.002678,0.000431,0.001528
49188000,0.0324,0.013523,0.002678,0.000431,0.001763
49189000,0.0324,0.013523,0.002678,0.000431,0.001763
49190000,0.0324,0.013523,0.002678,0.000431,0.001528
49191000,0.0324,0.013523,0.002678,0.000431,0.001763
49192000,0.0324,0.013523,0.002678,0.000431,0.001528
49193000,0.0324,0.013523,0.002678,0.000431,0.001880
49194000,0.0324,0.013523,0.002678,0.000431,0.001645
49195000,0.0324,0.013523,0.002678,0.000431,0.001645
49196000,0.0324,0.013523,0.002678,0.000431,0.001763
49197000,0.0324,0.013523,0.002678,0.000431,0.001528
49198000,0.0324,0.013523,0.002678,0.000431,0.001763
49199000,0.0324,0.013523,0.002678,0.000431,0.001645
49200000,0.0324,0.013523,0.002678,0.000431,0.001645
49201000,0.0324,0.013523,0.002678,0.000431,0.001645
49202000,0.0324,0.013523,0.002678,0.000431,0.001763
49203000,0.0324,0.013523,0.002678,0.000431,0.001645
49204000,0.0324,0.013523,0.002678,0.000431,0.001645
49205000,0.0324,0.013523,0.002678,0.000431,0.001645
49206000,0.0324,0.013523,0.002678,0.000431,0.001645
49207000,0.0324,0.013523,0.002678,0.000431,0.001763
49208000,0.0324,0.013523,0.002678,0.000431,0.001645
49209000,0.0324,0.013523,0.002678,0.000431,0.001763
49210000,0.0324,0.013523,0.002678,0.000431,0.001528
49211000,0.0324,0.013523,0.002678,0.000431,0.001763
49212000,0.0324,0.013523,0.002678,0.000431,0.001528
49213000,0.0324,0.013523,0.002678,0.000431,0.001763
49214000,0.0324,0.013523,0.002678,0.000431,0.001880
49215000,0.0324,0.013523,0.002678,0.000431,0.001410
49216000,0.0324,0.013523,0.002678,0.000431,0.001880
49217000,0.0324,0.013523,0.002678,0.000431,0.001528
49218000,0.0324,0.013523,0.002678,0.000431,0.001763
49219000,0.0324,0.013523,0.002678,0.000431,0.001645
49220000,0.0324,0.013523,0.002678,0.000431,0.001645
49221000,0.0324,0.013523,0.002678,0.000431,0.001763
49222000,0.0324,0.013523,0.002678,0.000431,0.001528
49223000,0.0324,0.013523,0.002678,0.000431,0.001880
49224000,0.0324,0.013523,0.002678,0.000431,0.001645
49225000,0.0324,0.013523,0.002678,0.000431,0.001645
49226000,0.0324,0.013523,0.002678,0.000431,0.001645
49227000,0.0324,0.013523,0.002678,0.000431,0.001645
49228000,0.0324,0.013523,0.002678,0.000431,0.001528
49229000,0.0324,0.013523,0.002678,0.000431,0.001763
49230000,0.0324,0.013523,0.002678,0.000431,0.001880
49231000,0.0324,0.013523,0.002678,0.000431,0.001410
49232000,0.0324,0.013523,0.002678,0.000431,0.001880
49233000,0.0324,0.013523,0.002678,0.000431,0.001528
49234000,0.0324,0.013523,0.002678,0.000431,0.001763
49235000,0.0324,0.013523,0.002678,0.000431,0.001528
49236000,0.0324,0.013523,0.002678,0.000431,0.001763
49237000,0.0324,0.013523,0.002678,0.000431,0.001880
49238000,0.0324,0.013523,0.002678,0.000431,0.001410
49239000,0.0324,0.013523,0.002678,0.000431,0.001880
49240000,0.0324,0.013523,0.002678,0.000431,0.001528
49241000,0.0324,0.013523,0.002678,0.000431,0.001763
49242000,0.0324,0.013523,0.002678,0.000431,0.001645
49243000,0.0324,0.013523,0.002678,0.000431,0.001645
49244000,0.0324,0.013523,0.002678,0.000431,0.001880
49245000,0.0324,0.013523,0.002678,0.000431,0.001410
49246000,0.0324,0.013523,0.002678,0.000431,0.001880
49247000,0.0324,0.013523,0.002678,0.000431,0.001645
49248000,0.0324,0.013523,0.002678,0.000431,0.001645
49249000,0.0324,0.013523,0.002678,0.000431,0.001645
49250000,0.0324,0.013523,0.002678,0.000431,0.001645
49251000,0.0324,0.013523,0.002678,0.000431,0.001645
49252000,0.0324,0.013523,0.002678,0.000431,0.001645
49253000,0.0324,0.013523,0.002678,0.000431,0.001763
49254000,0.0324,0.013523,0.002678,0.000431,0.001645
49255000,0.0324,0.013523,0.002678,0.000431,0.001645
49256000,0.0324,0.013523,0.002678,0.000431,0.001763
49257000,0.0324,0.013523,0.002678,0.000431,0.001645
49258000,0.0324,0.013523,0.002678,0.000431,0.001528
49259000,0.0324,0.013523,0.002678,0.000431,0.001763
49260000,0.0324,0.013523,0.002678,0.000431,0.001645
49261000,0.0324,0.013523,0.002678,0.000431,0.001645
49262000,0.0324,0.013523,0.002678,0.000431,0.001880
49263000,0.0324,0.013523,0.002678,0.000431,0.001410
49264000,0.0324,0.013523,0.002678,0.000431,0.001880
49265000,0.0324,0.013523,0.002678,0.000431,0.001645
49266000,0.0324,0.013523,0.002678,0.000431,0.001645
49267000,0.0324,0.013523,0.002678,0.000431,0.001880
49268000,0.0324,0.013523,0.002678,0.000431,0.001410
49269000,0.0324,0.013523,0.002678,0.000431,0.001880
49270000,0.0324,0.013523,0.002678,0.000431,0.001528
49271000,0.0324,0.013523,0.002678,0.000431,0.001763
49272000,0.0324,0.013523,0.002678,0.000431,0.001763
49273000,0.0324,0.013523,0.002678,0.000431,0.001528
49274000,0.0324,0.013523,0.002678,0.000431,0.001763
49275000,0.0324,0.013523,0.002678,0.000431,0.001645
49276000,0.0324,0.013523,0.002678,0.000431,0.001763
49277000,0.0324,0.013523,0.002678,0.000431,0.001410
49278000,0.0324,0.013523,0.002678,0.000431,0.001880
49279000,0.0324,0.013523,0.002678,0.000431,0.001645
49280000,0.0324,0.013523,0.002678,0.000431,0.001645
49281000,0.0324,0.013523,0.002678,0.000431,0.001645
49282000,0.0324,0.013523,0.002678,0.000431,0.001645
49283000,0.0324,0.013523,0.002678,0.000431,0.001528
49284000,0.0324,0.013523,0.002678,0.000431,0.001763
49285000,0.0324,0.013523,0.002678,0.000431,0.001880
49286000,0.0324,0.013523,0.002678,0.000431,0.001528
49287000,0.0324,0.013523,0.002678,0.000431,0.001763
49288000,0.0324,0.013523,0.002678,0.000431,0.001410
49289000,0.0324,0.013523,0.002678,0.000431,0.001880
49290000,0.0324,0.013523,0.002678,0.000431,0.001880
49291000,0.0324,0.013523,0.002678,0.000431,0.001410
49292000,0.0324,0.013523,0.002678,0.000431,0.001880
49293000,0.0324,0.013523,0.002678,0.000431,0.001410
49294000,0.0324,0.013523,0.002678,0.000431,0.001880
49295000,0.0324,0.013523,0.002678,0.000431,0.001645
49296000,0.0324,0.013523,0.002678,0.000431,0.001645
49297000,0.0324,0.013523,0.002678,0.000431,0.001645
49298000,0.0324,0.013523,0.002678,0.000431,0.001645
49299000,0.0324,0.013523,0.002678,0.000431,0.001880
49300000,0.0324,0.013523,0.002678,0.000431,0.001410
49301000,0.0324,0.013523,0.002678,0.000431,0.001880
49302000,0.0324,0.013523,0.002678,0.000431,0.001645
49303000,0.0324,0.013523,0.002678,0.000431,0.001528
49304000,0.0324,0.013523,0.002678,0.000431,0.002821
49305000,0.0324,0.013523,0.002678,0.000431,0.001880
49306000,0.0324,0.013523,0.002678,0.000431,0.000823
49307000,0.0324,0.013523,0.002678,0.000431,0.000823
49308000,0.0324,0.013523,0.002678,0.000431,0.000823
49309000,0.0324,0.013523,0.002678,0.000431,0.000823
49310000,0.0324,0.013523,0.002678,0.000431,0.000940
49311000,0.0324,0.013523,0.002678,0.000431,0.000823
49312000,0.0324,0.013523,0.002678,0.000431,0.000823
49313000,0.0324,0.013523,0.002678,0.000431,0.000705
49314000,0.0324,0.013523,0.002678,0.000431,0.000940
49315000,0.0324,0.013523,0.002678,0.000431,0.000940
49316000,0.0324,0.013523,0.002678,0.000431,0.000705
49317000,0.0324,0.013523,0.002678,0.000431,0.000940
49318000,0.0324,0.013523,0.002678,0.000431,0.000705
49319000,0.0324,0.013523,0.002678,0.000431,0.000940
49320000,0.0324,0.013523,0.002678,0.000431,0.000823
49321000,0.0324,0.013523,0.002678,0.000431,0.000823
49322000,0.0324,0.013523,0.002678,0.000431,0.000940
49323000,0.0324,0.013523,0.002678,0.000431,0.000705
49324000,0.0324,0.013523,0.002678,0.000431,0.000940
49325000,0.0324,0.013523,0.002678,0.000431,0.000823
49326000,0.0324,0.013523,0.002678,0.000431,0.000823
49327000,0.0324,0.013523,0.002678,0.000431,0.000823
49328000,0.0324,0.013523,0.002678,0.000431,0.000823
49329000,0.0324,0.013523,0.002678,0.000431,0.000823
49330000,0.0324,0.013523,0.002678,0.000431,0.000823
49331000,0.0324,0.013523,0.002678,0.000431,0.000940
49332000,0.0324,0.013523,0.002678,0.000431,0.000705
49333000,0.0324,0.013523,0.002678,0.000431,0.000940
49334000,0.0324,0.013523,0.002678,0.000431,0.000823
49335000,0.0324,0.013523,0.002678,0.000431,0.000823
49336000,0.0324,0.013523,0.002678,0.000431,0.000705
49337000,0.0324,0.013523,0.002678,0.000431,0.000940
49338000,0.0324,0.013523,0.002678,0.000431,0.000940
49339000,0.0324,0.013523,0.002678,0.000431,0.000705
49340000,0.0324,0.013523,0.002678,0.000431,0.000940
49341000,0.0324,0.013523,0.002678,0.000431,0.000705
49342000,0.0324,0.013523,0.002678,0.000431,0.000940
49343000,0.0324,0.013523,0.002678,0.000431,0.000823
49344000,0.0324,0.013523,0.002678,0.000431,0.000823
49345000,0.0324,0.013523,0.002678,0.000431,0.000940
49346000,0.0324,0.013523,0.002678,0.000431,0.000705
49347000,0.0324,0.013523,0.002678,0.000431,0.000940
49348000,0.0324,0.013523,0.002678,0.000431,0.000823
49349000,0.0324,0.013523,0.002678,0.000431,0.000823
49350000,0.0324,0.013523,0.002678,0.000431,0.000823
49351000,0.0324,0.013523,0.002678,0.000431,0.000823
49352000,0.0324,0.013523,0.002678,0.000431,0.000823
49353000,0.0324,0.013523,0.002678,0.000431,0.000823
49354000,0.0324,0.013523,0.002678,0.000431,0.000940
49355000,0.0324,0.013523,0.002678,0.000431,0.000823
49356000,0.0324,0.013523,0.002678,0.000431,0.000823
49357000,0.0324,0.013523,0.002678,0.000431,0.000823
49358000,0.0324,0.013523,0.002678,0.000431,0.000823
49359000,0.0324,0.013523,0.002678,0.000431,0.000823
49360000,0.0324,0.013523,0.002678,0.000431,0.000823
49361000,0.0324,0.013523,0.002678,0.000431,0.000823
49362000,0.0324,0.013523,0.002678,0.000431,0.000823
49363000,0.0324,0.013523,0.002678,0.000431,0.000940
49364000,0.0324,0.013523,0.002678,0.000431,0.000823
49365000,0.0324,0.013523,0.002678,0.000431,0.000823
49366000,0.0324,0.013523,0.002678,0.000431,0.000705
49367000,0.0324,0.013523,0.002678,0.000431,0.000940
49368000,0.0324,0.013523,0.002678,0.000431,0.000940
49369000,0.0324,0.013523,0.002678,0.000431,0.000705
49370000,0.0324,0.013523,0.002678,0.000431,0.000940
49371000,0.0324,0.013523,0.002678,0.000431,0.000705
49372000,0.0324,0.013523,0.002678,0.000431,0.000940
49373000,0.0324,0.013523,0.002678,0.000431,0.000940
49374000,0.0324,0.013523,0.002678,0.000431,0.000705
49375000,0.0324,0.013523,0.002678,0.000431,0.000940
49376000,0.0324,0.013523,0.002678,0.000431,0.000705
49377000,0.0324,0.013523,0.002678,0.000431,0.000940
49378000,0.0324,0.013523,0.002678,0.000431,0.000823
49379000,0.0324,0.013523,0.002678,0.000431,0.000823
49380000,0.0324,0.013523,0.002678,0.000431,0.000940
49381000,0.0324,0.013523,0.002678,0.000431,0.000705
