Cycle,Area(mm^2),PeakDynamic(W),SubthresholdLeakage(W),GateLeakage(W),RunTimeDynamic(W)
43000000,0.0324,0.013523,0.002678,0.000431,0.603155
43001000,0.0324,0.013523,0.002678,0.000431,0.232706
43002000,0.0324,0.013523,0.002678,0.000431,0.287944
43003000,0.0324,0.013523,0.002678,0.000431,0.198388
43004000,0.0324,0.013523,0.002678,0.000431,0.139153
43005000,0.0324,0.013523,0.002678,0.000431,0.147733
43006000,0.0324,0.013523,0.002678,0.000431,0.184754
43007000,0.0324,0.013523,0.002678,0.000431,0.435207
43008000,0.0324,0.013523,0.002678,0.000431,0.066521
43009000,0.0324,0.013523,0.002678,0.000431,0.054180
43010000,0.0324,0.013523,0.002678,0.000431,0.052300
43011000,0.0324,0.013523,0.002678,0.000431,0.043720
43012000,0.0324,0.013523,0.002678,0.000431,0.040312
43013000,0.0324,0.013523,0.002678,0.000431,0.038197
43014000,0.0324,0.013523,0.002678,0.000431,0.033378
43015000,0.0324,0.013523,0.002678,0.000431,0.030792
43016000,0.0324,0.013523,0.002678,0.000431,0.031615
43017000,0.0324,0.013523,0.002678,0.000431,0.031027
43018000,0.0324,0.013523,0.002678,0.000431,0.026444
43019000,0.0324,0.013523,0.002678,0.000431,0.030087
43020000,0.0324,0.013523,0.002678,0.000431,0.021860
43021000,0.0324,0.013523,0.002678,0.000431,0.022330
43022000,0.0324,0.013523,0.002678,0.000431,0.021390
43023000,0.0324,0.013523,0.002678,0.000431,0.016101
43024000,0.0324,0.013523,0.002678,0.000431,0.014926
43025000,0.0324,0.013523,0.002678,0.000431,0.014103
43026000,0.0324,0.013523,0.002678,0.000431,0.015631
43027000,0.0324,0.013523,0.002678,0.000431,0.013751
43028000,0.0324,0.013523,0.002678,0.000431,0.018687
43029000,0.0324,0.013523,0.002678,0.000431,0.015161
43030000,0.0324,0.013523,0.002678,0.000431,0.011988
43031000,0.0324,0.013523,0.002678,0.000431,0.012340
43032000,0.0324,0.013523,0.002678,0.000431,0.016336
43033000,0.0324,0.013523,0.002678,0.000431,0.010930
43034000,0.0324,0.013523,0.002678,0.000431,0.013986
43035000,0.0324,0.013523,0.002678,0.000431,0.010695
43036000,0.0324,0.013523,0.002678,0.000431,0.006347
43037000,0.0324,0.013523,0.002678,0.000431,0.006699
43038000,0.0324,0.013523,0.002678,0.000431,0.007874
43039000,0.0324,0.013523,0.002678,0.000431,0.007874
43040000,0.0324,0.013523,0.002678,0.000431,0.006229
43041000,0.0324,0.013523,0.002678,0.000431,0.004349
43042000,0.0324,0.013523,0.002678,0.000431,0.003878
43043000,0.0324,0.013523,0.002678,0.000431,0.004113
43044000,0.0324,0.013523,0.002678,0.000431,0.003761
43045000,0.0324,0.013523,0.002678,0.000431,0.003878
43046000,0.0324,0.013523,0.002678,0.000431,0.004466
43047000,0.0324,0.013523,0.002678,0.000431,0.004113
43048000,0.0324,0.013523,0.002678,0.000431,0.003526
43049000,0.0324,0.013523,0.002678,0.000431,0.005406
43050000,0.0324,0.013523,0.002678,0.000431,0.002821
43051000,0.0324,0.013523,0.002678,0.000431,0.002468
43052000,0.0324,0.013523,0.002678,0.000431,0.002586
43053000,0.0324,0.013523,0.002678,0.000431,0.002468
43054000,0.0324,0.013523,0.002678,0.000431,0.002586
43055000,0.0324,0.013523,0.002678,0.000431,0.002703
43056000,0.0324,0.013523,0.002678,0.000431,0.002468
43057000,0.0324,0.013523,0.002678,0.000431,0.002586
43058000,0.0324,0.013523,0.002678,0.000431,0.002468
43059000,0.0324,0.013523,0.002678,0.000431,0.002468
43060000,0.0324,0.013523,0.002678,0.000431,0.002586
43061000,0.0324,0.013523,0.002678,0.000431,0.002703
43062000,0.0324,0.013523,0.002678,0.000431,0.002468
43063000,0.0324,0.013523,0.002678,0.000431,0.002468
43064000,0.0324,0.013523,0.002678,0.000431,0.002586
43065000,0.0324,0.013523,0.002678,0.000431,0.002586
43066000,0.0324,0.013523,0.002678,0.000431,0.002586
43067000,0.0324,0.013523,0.002678,0.000431,0.002468
43068000,0.0324,0.013523,0.002678,0.000431,0.002586
43069000,0.0324,0.013523,0.002678,0.000431,0.002468
43070000,0.0324,0.013523,0.002678,0.000431,0.002703
43071000,0.0324,0.013523,0.002678,0.000431,0.002586
43072000,0.0324,0.013523,0.002678,0.000431,0.002468
43073000,0.0324,0.013523,0.002678,0.000431,0.002468
43074000,0.0324,0.013523,0.002678,0.000431,0.002586
43075000,0.0324,0.013523,0.002678,0.000431,0.002703
43076000,0.0324,0.013523,0.002678,0.000431,0.002468
43077000,0.0324,0.013523,0.002678,0.000431,0.002586
43078000,0.0324,0.013523,0.002678,0.000431,0.002351
43079000,0.0324,0.013523,0.002678,0.000431,0.002703
43080000,0.0324,0.013523,0.002678,0.000431,0.002703
43081000,0.0324,0.013523,0.002678,0.000431,0.002468
43082000,0.0324,0.013523,0.002678,0.000431,0.002586
43083000,0.0324,0.013523,0.002678,0.000431,0.002468
43084000,0.0324,0.013523,0.002678,0.000431,0.002703
43085000,0.0324,0.013523,0.002678,0.000431,0.002351
43086000,0.0324,0.013523,0.002678,0.000431,0.002586
43087000,0.0324,0.013523,0.002678,0.000431,0.002703
43088000,0.0324,0.013523,0.002678,0.000431,0.004701
43089000,0.0324,0.013523,0.002678,0.000431,0.001763
43090000,0.0324,0.013523,0.002678,0.000431,0.001763
43091000,0.0324,0.013523,0.002678,0.000431,0.001880
43092000,0.0324,0.013523,0.002678,0.000431,0.001528
43093000,0.0324,0.013523,0.002678,0.000431,0.001880
43094000,0.0324,0.013523,0.002678,0.000431,0.001645
43095000,0.0324,0.013523,0.002678,0.000431,0.001763
43096000,0.0324,0.013523,0.002678,0.000431,0.001528
43097000,0.0324,0.013523,0.002678,0.000431,0.001763
43098000,0.0324,0.013523,0.002678,0.000431,0.001880
43099000,0.0324,0.013523,0.002678,0.000431,0.001528
43100000,0.0324,0.013523,0.002678,0.000431,0.001763
43101000,0.0324,0.013523,0.002678,0.000431,0.001645
43102000,0.0324,0.013523,0.002678,0.000431,0.001880
43103000,0.0324,0.013523,0.002678,0.000431,0.001763
43104000,0.0324,0.013523,0.002678,0.000431,0.001528
43105000,0.0324,0.013523,0.002678,0.000431,0.001880
43106000,0.0324,0.013523,0.002678,0.000431,0.001645
43107000,0.0324,0.013523,0.002678,0.000431,0.001763
43108000,0.0324,0.013523,0.002678,0.000431,0.001528
43109000,0.0324,0.013523,0.002678,0.000431,0.001880
43110000,0.0324,0.013523,0.002678,0.000431,0.001763
43111000,0.0324,0.013523,0.002678,0.000431,0.001645
43112000,0.0324,0.013523,0.002678,0.000431,0.001645
43113000,0.0324,0.013523,0.002678,0.000431,0.001763
43114000,0.0324,0.013523,0.002678,0.000431,0.001645
43115000,0.0324,0.013523,0.002678,0.000431,0.001763
43116000,0.0324,0.013523,0.002678,0.000431,0.001645
43117000,0.0324,0.013523,0.002678,0.000431,0.001763
43118000,0.0324,0.013523,0.002678,0.000431,0.002938
43119000,0.0324,0.013523,0.002678,0.000431,0.002116
43120000,0.0324,0.013523,0.002678,0.000431,0.000940
43121000,0.0324,0.013523,0.002678,0.000431,0.000940
43122000,0.0324,0.013523,0.002678,0.000431,0.000823
43123000,0.0324,0.013523,0.002678,0.000431,0.000823
43124000,0.0324,0.013523,0.002678,0.000431,0.000940
43125000,0.0324,0.013523,0.002678,0.000431,0.000940
43126000,0.0324,0.013523,0.002678,0.000431,0.000823
43127000,0.0324,0.013523,0.002678,0.000431,0.000823
43128000,0.0324,0.013523,0.002678,0.000431,0.000940
43129000,0.0324,0.013523,0.002678,0.000431,0.000940
43130000,0.0324,0.013523,0.002678,0.000431,0.000823
43131000,0.0324,0.013523,0.002678,0.000431,0.000823
43132000,0.0324,0.013523,0.002678,0.000431,0.000940
43133000,0.0324,0.013523,0.002678,0.000431,0.000823
43134000,0.0324,0.013523,0.002678,0.000431,0.000940
43135000,0.0324,0.013523,0.002678,0.000431,0.000823
43136000,0.0324,0.013523,0.002678,0.000431,0.000940
43137000,0.0324,0.013523,0.002678,0.000431,0.000823
43138000,0.0324,0.013523,0.002678,0.000431,0.000823
43139000,0.0324,0.013523,0.002678,0.000431,0.000940
43140000,0.0324,0.013523,0.002678,0.000431,0.000940
43141000,0.0324,0.013523,0.002678,0.000431,0.000705
43142000,0.0324,0.013523,0.002678,0.000431,0.000940
43143000,0.0324,0.013523,0.002678,0.000431,0.000940
43144000,0.0324,0.013523,0.002678,0.000431,0.000940
43145000,0.0324,0.013523,0.002678,0.000431,0.000705
43146000,0.0324,0.013523,0.002678,0.000431,0.000940
43147000,0.0324,0.013523,0.002678,0.000431,0.000940
43148000,0.0324,0.013523,0.002678,0.000431,0.000823
43149000,0.0324,0.013523,0.002678,0.000431,0.000823
43150000,0.0324,0.013523,0.002678,0.000431,0.000940
43151000,0.0324,0.013523,0.002678,0.000431,0.000940
43152000,0.0324,0.013523,0.002678,0.000431,0.000823
43153000,0.0324,0.013523,0.002678,0.000431,0.000823
43154000,0.0324,0.013523,0.002678,0.000431,0.000940
43155000,0.0324,0.013523,0.002678,0.000431,0.000823
43156000,0.0324,0.013523,0.002678,0.000431,0.000940
43157000,0.0324,0.013523,0.002678,0.000431,0.000823
43158000,0.0324,0.013523,0.002678,0.000431,0.209200
43159000,0.0324,0.013523,0.002678,0.000431,0.528289
43160000,0.0324,0.013523,0.002678,0.000431,0.469290
43161000,0.0324,0.013523,0.002678,0.000431,0.131632
43162000,0.0324,0.013523,0.002678,0.000431,0.133982
43163000,0.0324,0.013523,0.002678,0.000431,0.591637
43164000,0.0324,0.013523,0.002678,0.000431,0.269022
43165000,0.0324,0.013523,0.002678,0.000431,0.275721
43166000,0.0324,0.013523,0.002678,0.000431,0.247632
43167000,0.0324,0.013523,0.002678,0.000431,0.152434
43168000,0.0324,0.013523,0.002678,0.000431,0.154079
43169000,0.0324,0.013523,0.002678,0.000431,0.152552
43170000,0.0324,0.013523,0.002678,0.000431,0.443551
43171000,0.0324,0.013523,0.002678,0.000431,0.086618
43172000,0.0324,0.013523,0.002678,0.000431,0.064170
43173000,0.0324,0.013523,0.002678,0.000431,0.056178
43174000,0.0324,0.013523,0.002678,0.000431,0.040195
43175000,0.0324,0.013523,0.002678,0.000431,0.030087
43176000,0.0324,0.013523,0.002678,0.000431,0.025269
43177000,0.0324,0.013523,0.002678,0.000431,0.024211
43178000,0.0324,0.013523,0.002678,0.000431,0.022448
43179000,0.0324,0.013523,0.002678,0.000431,0.015161
43180000,0.0324,0.013523,0.002678,0.000431,0.014926
43181000,0.0324,0.013523,0.002678,0.000431,0.013986
43182000,0.0324,0.013523,0.002678,0.000431,0.007992
43183000,0.0324,0.013523,0.002678,0.000431,0.009402
43184000,0.0324,0.013523,0.002678,0.000431,0.008932
43185000,0.0324,0.013523,0.002678,0.000431,0.007992
43186000,0.0324,0.013523,0.002678,0.000431,0.009167
43187000,0.0324,0.013523,0.002678,0.000431,0.009167
43188000,0.0324,0.013523,0.002678,0.000431,0.008462
43189000,0.0324,0.013523,0.002678,0.000431,0.009167
43190000,0.0324,0.013523,0.002678,0.000431,0.008580
43191000,0.0324,0.013523,0.002678,0.000431,0.009050
43192000,0.0324,0.013523,0.002678,0.000431,0.008932
43193000,0.0324,0.013523,0.002678,0.000431,0.008697
43194000,0.0324,0.013523,0.002678,0.000431,0.008580
43195000,0.0324,0.013523,0.002678,0.000431,0.008580
43196000,0.0324,0.013523,0.002678,0.000431,0.009402
43197000,0.0324,0.013523,0.002678,0.000431,0.008932
43198000,0.0324,0.013523,0.002678,0.000431,0.010578
43199000,0.0324,0.013523,0.002678,0.000431,0.008227
43200000,0.0324,0.013523,0.002678,0.000431,0.007522
43201000,0.0324,0.013523,0.002678,0.000431,0.008345
43202000,0.0324,0.013523,0.002678,0.000431,0.008109
43203000,0.0324,0.013523,0.002678,0.000431,0.007992
43204000,0.0324,0.013523,0.002678,0.000431,0.011400
43205000,0.0324,0.013523,0.002678,0.000431,0.006347
43206000,0.0324,0.013523,0.002678,0.000431,0.006817
43207000,0.0324,0.013523,0.002678,0.000431,0.006347
43208000,0.0324,0.013523,0.002678,0.000431,0.006347
43209000,0.0324,0.013523,0.002678,0.000431,0.006934
43210000,0.0324,0.013523,0.002678,0.000431,0.005994
43211000,0.0324,0.013523,0.002678,0.000431,0.006582
43212000,0.0324,0.013523,0.002678,0.000431,0.005641
43213000,0.0324,0.013523,0.002678,0.000431,0.005994
43214000,0.0324,0.013523,0.002678,0.000431,0.008462
43215000,0.0324,0.013523,0.002678,0.000431,0.006347
43216000,0.0324,0.013523,0.002678,0.000431,0.006464
43217000,0.0324,0.013523,0.002678,0.000431,0.002468
43218000,0.0324,0.013523,0.002678,0.000431,0.002586
43219000,0.0324,0.013523,0.002678,0.000431,0.002468
43220000,0.0324,0.013523,0.002678,0.000431,0.002351
43221000,0.0324,0.013523,0.002678,0.000431,0.002586
43222000,0.0324,0.013523,0.002678,0.000431,0.002586
43223000,0.0324,0.013523,0.002678,0.000431,0.002351
43224000,0.0324,0.013523,0.002678,0.000431,0.002703
43225000,0.0324,0.013523,0.002678,0.000431,0.002233
43226000,0.0324,0.013523,0.002678,0.000431,0.002703
43227000,0.0324,0.013523,0.002678,0.000431,0.002468
43228000,0.0324,0.013523,0.002678,0.000431,0.002468
43229000,0.0324,0.013523,0.002678,0.000431,0.002703
43230000,0.0324,0.013523,0.002678,0.000431,0.002233
43231000,0.0324,0.013523,0.002678,0.000431,0.002821
43232000,0.0324,0.013523,0.002678,0.000431,0.002233
43233000,0.0324,0.013523,0.002678,0.000431,0.002703
43234000,0.0324,0.013523,0.002678,0.000431,0.002468
43235000,0.0324,0.013523,0.002678,0.000431,0.002351
43236000,0.0324,0.013523,0.002678,0.000431,0.002821
43237000,0.0324,0.013523,0.002678,0.000431,0.002233
43238000,0.0324,0.013523,0.002678,0.000431,0.002586
43239000,0.0324,0.013523,0.002678,0.000431,0.003878
43240000,0.0324,0.013523,0.002678,0.000431,0.001645
43241000,0.0324,0.013523,0.002678,0.000431,0.001645
43242000,0.0324,0.013523,0.002678,0.000431,0.001880
43243000,0.0324,0.013523,0.002678,0.000431,0.001763
43244000,0.0324,0.013523,0.002678,0.000431,0.001528
43245000,0.0324,0.013523,0.002678,0.000431,0.001645
43246000,0.0324,0.013523,0.002678,0.000431,0.005054
43247000,0.0324,0.013523,0.002678,0.000431,0.000823
43248000,0.0324,0.013523,0.002678,0.000431,0.000823
43249000,0.0324,0.013523,0.002678,0.000431,0.000940
43250000,0.0324,0.013523,0.002678,0.000431,0.051360
43251000,0.0324,0.013523,0.002678,0.000431,0.510307
43252000,0.0324,0.013523,0.002678,0.000431,0.603977
43253000,0.0324,0.013523,0.002678,0.000431,0.131632
43254000,0.0324,0.013523,0.002678,0.000431,0.134922
43255000,0.0324,0.013523,0.002678,0.000431,0.525469
43256000,0.0324,0.013523,0.002678,0.000431,0.244694
43257000,0.0324,0.013523,0.002678,0.000431,0.229297
43258000,0.0324,0.013523,0.002678,0.000431,0.339539
43259000,0.0324,0.013523,0.002678,0.000431,0.148556
43260000,0.0324,0.013523,0.002678,0.000431,0.142797
43261000,0.0324,0.013523,0.002678,0.000431,0.145265
43262000,0.0324,0.013523,0.002678,0.000431,0.237054
43263000,0.0324,0.013523,0.002678,0.000431,0.392427
43264000,0.0324,0.013523,0.002678,0.000431,0.073220
43265000,0.0324,0.013523,0.002678,0.000431,0.053593
43266000,0.0324,0.013523,0.002678,0.000431,0.049479
43267000,0.0324,0.013523,0.002678,0.000431,0.050890
43268000,0.0324,0.013523,0.002678,0.000431,0.032790
43269000,0.0324,0.013523,0.002678,0.000431,0.020685
43270000,0.0324,0.013523,0.002678,0.000431,0.018687
43271000,0.0324,0.013523,0.002678,0.000431,0.018569
43272000,0.0324,0.013523,0.002678,0.000431,0.014809
43273000,0.0324,0.013523,0.002678,0.000431,0.015161
43274000,0.0324,0.013523,0.002678,0.000431,0.014573
43275000,0.0324,0.013523,0.002678,0.000431,0.016336
43276000,0.0324,0.013523,0.002678,0.000431,0.013751
43277000,0.0324,0.013523,0.002678,0.000431,0.018687
43278000,0.0324,0.013523,0.002678,0.000431,0.013751
43279000,0.0324,0.013523,0.002678,0.000431,0.014456
43280000,0.0324,0.013523,0.002678,0.000431,0.014103
43281000,0.0324,0.013523,0.002678,0.000431,0.010107
43282000,0.0324,0.013523,0.002678,0.000431,0.010813
43283000,0.0324,0.013523,0.002678,0.000431,0.009520
43284000,0.0324,0.013523,0.002678,0.000431,0.007757
43285000,0.0324,0.013523,0.002678,0.000431,0.008462
43286000,0.0324,0.013523,0.002678,0.000431,0.008227
43287000,0.0324,0.013523,0.002678,0.000431,0.007052
43288000,0.0324,0.013523,0.002678,0.000431,0.006699
43289000,0.0324,0.013523,0.002678,0.000431,0.010342
43290000,0.0324,0.013523,0.002678,0.000431,0.005759
43291000,0.0324,0.013523,0.002678,0.000431,0.005876
43292000,0.0324,0.013523,0.002678,0.000431,0.006229
43293000,0.0324,0.013523,0.002678,0.000431,0.005876
43294000,0.0324,0.013523,0.002678,0.000431,0.005876
43295000,0.0324,0.013523,0.002678,0.000431,0.005994
43296000,0.0324,0.013523,0.002678,0.000431,0.005876
43297000,0.0324,0.013523,0.002678,0.000431,0.006347
43298000,0.0324,0.013523,0.002678,0.000431,0.007169
43299000,0.0324,0.013523,0.002678,0.000431,0.006347
43300000,0.0324,0.013523,0.002678,0.000431,0.005641
43301000,0.0324,0.013523,0.002678,0.000431,0.004936
43302000,0.0324,0.013523,0.002678,0.000431,0.003291
43303000,0.0324,0.013523,0.002678,0.000431,0.002703
43304000,0.0324,0.013523,0.002678,0.000431,0.003408
43305000,0.0324,0.013523,0.002678,0.000431,0.003408
43306000,0.0324,0.013523,0.002678,0.000431,0.002703
43307000,0.0324,0.013523,0.002678,0.000431,0.003761
43308000,0.0324,0.013523,0.002678,0.000431,0.002703
43309000,0.0324,0.013523,0.002678,0.000431,0.003408
43310000,0.0324,0.013523,0.002678,0.000431,0.003056
43311000,0.0324,0.013523,0.002678,0.000431,0.003056
43312000,0.0324,0.013523,0.002678,0.000431,0.003761
43313000,0.0324,0.013523,0.002678,0.000431,0.002351
43314000,0.0324,0.013523,0.002678,0.000431,0.003761
43315000,0.0324,0.013523,0.002678,0.000431,0.003056
43316000,0.0324,0.013523,0.002678,0.000431,0.003056
43317000,0.0324,0.013523,0.002678,0.000431,0.003291
43318000,0.0324,0.013523,0.002678,0.000431,0.002821
43319000,0.0324,0.013523,0.002678,0.000431,0.003643
43320000,0.0324,0.013523,0.002678,0.000431,0.002938
43321000,0.0324,0.013523,0.002678,0.000431,0.003291
43322000,0.0324,0.013523,0.002678,0.000431,0.003173
43323000,0.0324,0.013523,0.002678,0.000431,0.002938
43324000,0.0324,0.013523,0.002678,0.000431,0.003291
43325000,0.0324,0.013523,0.002678,0.000431,0.003291
43326000,0.0324,0.013523,0.002678,0.000431,0.002703
43327000,0.0324,0.013523,0.002678,0.000431,0.003408
43328000,0.0324,0.013523,0.002678,0.000431,0.003291
43329000,0.0324,0.013523,0.002678,0.000431,0.002821
43330000,0.0324,0.013523,0.002678,0.000431,0.003761
43331000,0.0324,0.013523,0.002678,0.000431,0.002703
43332000,0.0324,0.013523,0.002678,0.000431,0.003408
43333000,0.0324,0.013523,0.002678,0.000431,0.002703
43334000,0.0324,0.013523,0.002678,0.000431,0.003408
43335000,0.0324,0.013523,0.002678,0.000431,0.003761
43336000,0.0324,0.013523,0.002678,0.000431,0.002351
43337000,0.0324,0.013523,0.002678,0.000431,0.003761
43338000,0.0324,0.013523,0.002678,0.000431,0.002703
43339000,0.0324,0.013523,0.002678,0.000431,0.003408
43340000,0.0324,0.013523,0.002678,0.000431,0.003291
43341000,0.0324,0.013523,0.002678,0.000431,0.002821
43342000,0.0324,0.013523,0.002678,0.000431,0.003643
43343000,0.0324,0.013523,0.002678,0.000431,0.002703
43344000,0.0324,0.013523,0.002678,0.000431,0.003526
43345000,0.0324,0.013523,0.002678,0.000431,0.003173
43346000,0.0324,0.013523,0.002678,0.000431,0.002821
43347000,0.0324,0.013523,0.002678,0.000431,0.003291
43348000,0.0324,0.013523,0.002678,0.000431,0.003173
43349000,0.0324,0.013523,0.002678,0.000431,0.003056
43350000,0.0324,0.013523,0.002678,0.000431,0.003291
43351000,0.0324,0.013523,0.002678,0.000431,0.003056
43352000,0.0324,0.013523,0.002678,0.000431,0.003056
43353000,0.0324,0.013523,0.002678,0.000431,0.003408
43354000,0.0324,0.013523,0.002678,0.000431,0.003056
43355000,0.0324,0.013523,0.002678,0.000431,0.003408
43356000,0.0324,0.013523,0.002678,0.000431,0.002703
43357000,0.0324,0.013523,0.002678,0.000431,0.003408
43358000,0.0324,0.013523,0.002678,0.000431,0.003291
43359000,0.0324,0.013523,0.002678,0.000431,0.002821
43360000,0.0324,0.013523,0.002678,0.000431,0.003761
43361000,0.0324,0.013523,0.002678,0.000431,0.002703
43362000,0.0324,0.013523,0.002678,0.000431,0.003408
43363000,0.0324,0.013523,0.002678,0.000431,0.003056
43364000,0.0324,0.013523,0.002678,0.000431,0.003056
43365000,0.0324,0.013523,0.002678,0.000431,0.003643
43366000,0.0324,0.013523,0.002678,0.000431,0.002468
43367000,0.0324,0.013523,0.002678,0.000431,0.003761
43368000,0.0324,0.013523,0.002678,0.000431,0.003173
43369000,0.0324,0.013523,0.002678,0.000431,0.003761
43370000,0.0324,0.013523,0.002678,0.000431,0.003643
43371000,0.0324,0.013523,0.002678,0.000431,0.001998
43372000,0.0324,0.013523,0.002678,0.000431,0.002586
43373000,0.0324,0.013523,0.002678,0.000431,0.002351
43374000,0.0324,0.013523,0.002678,0.000431,0.002351
43375000,0.0324,0.013523,0.002678,0.000431,0.002468
43376000,0.0324,0.013523,0.002678,0.000431,0.001998
43377000,0.0324,0.013523,0.002678,0.000431,0.002468
43378000,0.0324,0.013523,0.002678,0.000431,0.002468
43379000,0.0324,0.013523,0.002678,0.000431,0.001998
43380000,0.0324,0.013523,0.002678,0.000431,0.002468
43381000,0.0324,0.013523,0.002678,0.000431,0.002351
