Cycle,Area(mm^2),PeakDynamic(W),SubthresholdLeakage(W),GateLeakage(W),RunTimeDynamic(W)
99000000,0.0324,0.013523,0.002678,0.000431,0.003526
99001000,0.0324,0.013523,0.002678,0.000431,0.003056
99002000,0.0324,0.013523,0.002678,0.000431,0.003526
99003000,0.0324,0.013523,0.002678,0.000431,0.003878
99004000,0.0324,0.013523,0.002678,0.000431,0.001528
99005000,0.0324,0.013523,0.002678,0.000431,0.001763
99006000,0.0324,0.013523,0.002678,0.000431,0.001763
99007000,0.0324,0.013523,0.002678,0.000431,0.001645
99008000,0.0324,0.013523,0.002678,0.000431,0.001645
99009000,0.0324,0.013523,0.002678,0.000431,0.001645
99010000,0.0324,0.013523,0.002678,0.000431,0.001645
99011000,0.0324,0.013523,0.002678,0.000431,0.001645
99012000,0.0324,0.013523,0.002678,0.000431,0.001763
99013000,0.0324,0.013523,0.002678,0.000431,0.001645
99014000,0.0324,0.013523,0.002678,0.000431,0.001645
99015000,0.0324,0.013523,0.002678,0.000431,0.001763
99016000,0.0324,0.013523,0.002678,0.000431,0.001528
99017000,0.0324,0.013523,0.002678,0.000431,0.001763
99018000,0.0324,0.013523,0.002678,0.000431,0.001763
99019000,0.0324,0.013523,0.002678,0.000431,0.001528
99020000,0.0324,0.013523,0.002678,0.000431,0.001763
99021000,0.0324,0.013523,0.002678,0.000431,0.001528
99022000,0.0324,0.013523,0.002678,0.000431,0.001763
99023000,0.0324,0.013523,0.002678,0.000431,0.001763
99024000,0.0324,0.013523,0.002678,0.000431,0.001645
99025000,0.0324,0.013523,0.002678,0.000431,0.001645
99026000,0.0324,0.013523,0.002678,0.000431,0.001645
99027000,0.0324,0.013523,0.002678,0.000431,0.001645
99028000,0.0324,0.013523,0.002678,0.000431,0.001763
99029000,0.0324,0.013523,0.002678,0.000431,0.001763
99030000,0.0324,0.013523,0.002678,0.000431,0.001528
99031000,0.0324,0.013523,0.002678,0.000431,0.001763
99032000,0.0324,0.013523,0.002678,0.000431,0.001645
99033000,0.0324,0.013523,0.002678,0.000431,0.001645
99034000,0.0324,0.013523,0.002678,0.000431,0.001763
99035000,0.0324,0.013523,0.002678,0.000431,0.001645
99036000,0.0324,0.013523,0.002678,0.000431,0.001763
99037000,0.0324,0.013523,0.002678,0.000431,0.001528
99038000,0.0324,0.013523,0.002678,0.000431,0.001763
99039000,0.0324,0.013523,0.002678,0.000431,0.001645
99040000,0.0324,0.013523,0.002678,0.000431,0.001645
99041000,0.0324,0.013523,0.002678,0.000431,0.001763
99042000,0.0324,0.013523,0.002678,0.000431,0.001645
99043000,0.0324,0.013523,0.002678,0.000431,0.001645
99044000,0.0324,0.013523,0.002678,0.000431,0.001528
99045000,0.0324,0.013523,0.002678,0.000431,0.001880
99046000,0.0324,0.013523,0.002678,0.000431,0.001645
99047000,0.0324,0.013523,0.002678,0.000431,0.001528
99048000,0.0324,0.013523,0.002678,0.000431,0.001880
99049000,0.0324,0.013523,0.002678,0.000431,0.001763
99050000,0.0324,0.013523,0.002678,0.000431,0.001528
99051000,0.0324,0.013523,0.002678,0.000431,0.001763
99052000,0.0324,0.013523,0.002678,0.000431,0.001645
99053000,0.0324,0.013523,0.002678,0.000431,0.001645
99054000,0.0324,0.013523,0.002678,0.000431,0.001763
99055000,0.0324,0.013523,0.002678,0.000431,0.001645
99056000,0.0324,0.013523,0.002678,0.000431,0.001763
99057000,0.0324,0.013523,0.002678,0.000431,0.001410
99058000,0.0324,0.013523,0.002678,0.000431,0.001880
99059000,0.0324,0.013523,0.002678,0.000431,0.001645
99060000,0.0324,0.013523,0.002678,0.000431,0.001645
99061000,0.0324,0.013523,0.002678,0.000431,0.001763
99062000,0.0324,0.013523,0.002678,0.000431,0.001528
99063000,0.0324,0.013523,0.002678,0.000431,0.001645
99064000,0.0324,0.013523,0.002678,0.000431,0.001880
99065000,0.0324,0.013523,0.002678,0.000431,0.001645
99066000,0.0324,0.013523,0.002678,0.000431,0.003643
99067000,0.0324,0.013523,0.002678,0.000431,0.000940
99068000,0.0324,0.013523,0.002678,0.000431,0.000705
99069000,0.0324,0.013523,0.002678,0.000431,0.000940
99070000,0.0324,0.013523,0.002678,0.000431,0.000823
99071000,0.0324,0.013523,0.002678,0.000431,0.000823
99072000,0.0324,0.013523,0.002678,0.000431,0.000940
99073000,0.0324,0.013523,0.002678,0.000431,0.000705
99074000,0.0324,0.013523,0.002678,0.000431,0.000940
99075000,0.0324,0.013523,0.002678,0.000431,0.000823
99076000,0.0324,0.013523,0.002678,0.000431,0.000823
99077000,0.0324,0.013523,0.002678,0.000431,0.000823
99078000,0.0324,0.013523,0.002678,0.000431,0.000823
99079000,0.0324,0.013523,0.002678,0.000431,0.000823
99080000,0.0324,0.013523,0.002678,0.000431,0.013868
99081000,0.0324,0.013523,0.002678,0.000431,0.502786
99082000,0.0324,0.013523,0.002678,0.000431,0.596338
99083000,0.0324,0.013523,0.002678,0.000431,0.132572
99084000,0.0324,0.013523,0.002678,0.000431,0.132102
99085000,0.0324,0.013523,0.002678,0.000431,0.544978
99086000,0.0324,0.013523,0.002678,0.000431,0.333780
99087000,0.0324,0.013523,0.002678,0.000431,0.274663
99088000,0.0324,0.013523,0.002678,0.000431,0.318384
99089000,0.0324,0.013523,0.002678,0.000431,0.140799
99090000,0.0324,0.013523,0.002678,0.000431,0.171356
99091000,0.0324,0.013523,0.002678,0.000431,0.083563
99092000,0.0324,0.013523,0.002678,0.000431,0.489857
99093000,0.0324,0.013523,0.002678,0.000431,0.145382
99094000,0.0324,0.013523,0.002678,0.000431,0.083680
99095000,0.0324,0.013523,0.002678,0.000431,0.071810
99096000,0.0324,0.013523,0.002678,0.000431,0.064993
99097000,0.0324,0.013523,0.002678,0.000431,0.053945
99098000,0.0324,0.013523,0.002678,0.000431,0.053710
99099000,0.0324,0.013523,0.002678,0.000431,0.044661
99100000,0.0324,0.013523,0.002678,0.000431,0.039607
99101000,0.0324,0.013523,0.002678,0.000431,0.038549
99102000,0.0324,0.013523,0.002678,0.000431,0.036434
99103000,0.0324,0.013523,0.002678,0.000431,0.037962
99104000,0.0324,0.013523,0.002678,0.000431,0.031380
99105000,0.0324,0.013523,0.002678,0.000431,0.029970
99106000,0.0324,0.013523,0.002678,0.000431,0.028207
99107000,0.0324,0.013523,0.002678,0.000431,0.023858
99108000,0.0324,0.013523,0.002678,0.000431,0.028324
99109000,0.0324,0.013523,0.002678,0.000431,0.023976
99110000,0.0324,0.013523,0.002678,0.000431,0.026561
99111000,0.0324,0.013523,0.002678,0.000431,0.024211
99112000,0.0324,0.013523,0.002678,0.000431,0.024916
99113000,0.0324,0.013523,0.002678,0.000431,0.024563
99114000,0.0324,0.013523,0.002678,0.000431,0.020685
99115000,0.0324,0.013523,0.002678,0.000431,0.020567
99116000,0.0324,0.013523,0.002678,0.000431,0.021743
99117000,0.0324,0.013523,0.002678,0.000431,0.022683
99118000,0.0324,0.013523,0.002678,0.000431,0.022213
99119000,0.0324,0.013523,0.002678,0.000431,0.019040
99120000,0.0324,0.013523,0.002678,0.000431,0.018217
99121000,0.0324,0.013523,0.002678,0.000431,0.019510
99122000,0.0324,0.013523,0.002678,0.000431,0.018334
99123000,0.0324,0.013523,0.002678,0.000431,0.019510
99124000,0.0324,0.013523,0.002678,0.000431,0.018569
99125000,0.0324,0.013523,0.002678,0.000431,0.018099
99126000,0.0324,0.013523,0.002678,0.000431,0.020097
99127000,0.0324,0.013523,0.002678,0.000431,0.017864
99128000,0.0324,0.013523,0.002678,0.000431,0.021743
99129000,0.0324,0.013523,0.002678,0.000431,0.018922
99130000,0.0324,0.013523,0.002678,0.000431,0.016924
99131000,0.0324,0.013523,0.002678,0.000431,0.017042
99132000,0.0324,0.013523,0.002678,0.000431,0.016219
99133000,0.0324,0.013523,0.002678,0.000431,0.017512
99134000,0.0324,0.013523,0.002678,0.000431,0.016571
99135000,0.0324,0.013523,0.002678,0.000431,0.017042
99136000,0.0324,0.013523,0.002678,0.000431,0.016689
99137000,0.0324,0.013523,0.002678,0.000431,0.017277
99138000,0.0324,0.013523,0.002678,0.000431,0.017042
99139000,0.0324,0.013523,0.002678,0.000431,0.016336
99140000,0.0324,0.013523,0.002678,0.000431,0.017512
99141000,0.0324,0.013523,0.002678,0.000431,0.016454
99142000,0.0324,0.013523,0.002678,0.000431,0.019157
99143000,0.0324,0.013523,0.002678,0.000431,0.018452
99144000,0.0324,0.013523,0.002678,0.000431,0.013046
99145000,0.0324,0.013523,0.002678,0.000431,0.014456
99146000,0.0324,0.013523,0.002678,0.000431,0.013281
99147000,0.0324,0.013523,0.002678,0.000431,0.013516
99148000,0.0324,0.013523,0.002678,0.000431,0.013868
99149000,0.0324,0.013523,0.002678,0.000431,0.013633
99150000,0.0324,0.013523,0.002678,0.000431,0.013868
99151000,0.0324,0.013523,0.002678,0.000431,0.013516
99152000,0.0324,0.013523,0.002678,0.000431,0.015631
99153000,0.0324,0.013523,0.002678,0.000431,0.012811
99154000,0.0324,0.013523,0.002678,0.000431,0.013868
99155000,0.0324,0.013523,0.002678,0.000431,0.012340
99156000,0.0324,0.013523,0.002678,0.000431,0.011518
99157000,0.0324,0.013523,0.002678,0.000431,0.012340
99158000,0.0324,0.013523,0.002678,0.000431,0.011635
99159000,0.0324,0.013523,0.002678,0.000431,0.012223
99160000,0.0324,0.013523,0.002678,0.000431,0.012458
99161000,0.0324,0.013523,0.002678,0.000431,0.011400
99162000,0.0324,0.013523,0.002678,0.000431,0.011988
99163000,0.0324,0.013523,0.002678,0.000431,0.012811
99164000,0.0324,0.013523,0.002678,0.000431,0.011400
99165000,0.0324,0.013523,0.002678,0.000431,0.011870
99166000,0.0324,0.013523,0.002678,0.000431,0.012340
99167000,0.0324,0.013523,0.002678,0.000431,0.012576
99168000,0.0324,0.013523,0.002678,0.000431,0.011988
99169000,0.0324,0.013523,0.002678,0.000431,0.012340
99170000,0.0324,0.013523,0.002678,0.000431,0.013163
99171000,0.0324,0.013523,0.002678,0.000431,0.011283
99172000,0.0324,0.013523,0.002678,0.000431,0.010460
99173000,0.0324,0.013523,0.002678,0.000431,0.011165
99174000,0.0324,0.013523,0.002678,0.000431,0.010813
99175000,0.0324,0.013523,0.002678,0.000431,0.011048
99176000,0.0324,0.013523,0.002678,0.000431,0.010695
99177000,0.0324,0.013523,0.002678,0.000431,0.011165
99178000,0.0324,0.013523,0.002678,0.000431,0.012693
99179000,0.0324,0.013523,0.002678,0.000431,0.008932
99180000,0.0324,0.013523,0.002678,0.000431,0.009520
99181000,0.0324,0.013523,0.002678,0.000431,0.008462
99182000,0.0324,0.013523,0.002678,0.000431,0.008462
99183000,0.0324,0.013523,0.002678,0.000431,0.007757
99184000,0.0324,0.013523,0.002678,0.000431,0.011283
99185000,0.0324,0.013523,0.002678,0.000431,0.005994
99186000,0.0324,0.013523,0.002678,0.000431,0.005876
99187000,0.0324,0.013523,0.002678,0.000431,0.005641
99188000,0.0324,0.013523,0.002678,0.000431,0.005641
99189000,0.0324,0.013523,0.002678,0.000431,0.005876
99190000,0.0324,0.013523,0.002678,0.000431,0.005641
99191000,0.0324,0.013523,0.002678,0.000431,0.005876
99192000,0.0324,0.013523,0.002678,0.000431,0.005641
99193000,0.0324,0.013523,0.002678,0.000431,0.006111
99194000,0.0324,0.013523,0.002678,0.000431,0.005524
99195000,0.0324,0.013523,0.002678,0.000431,0.005876
99196000,0.0324,0.013523,0.002678,0.000431,0.005641
99197000,0.0324,0.013523,0.002678,0.000431,0.005994
99198000,0.0324,0.013523,0.002678,0.000431,0.005876
99199000,0.0324,0.013523,0.002678,0.000431,0.005524
99200000,0.0324,0.013523,0.002678,0.000431,0.005759
99201000,0.0324,0.013523,0.002678,0.000431,0.006347
99202000,0.0324,0.013523,0.002678,0.000431,0.007169
99203000,0.0324,0.013523,0.002678,0.000431,0.006229
99204000,0.0324,0.013523,0.002678,0.000431,0.005289
99205000,0.0324,0.013523,0.002678,0.000431,0.005171
99206000,0.0324,0.013523,0.002678,0.000431,0.004701
99207000,0.0324,0.013523,0.002678,0.000431,0.004936
99208000,0.0324,0.013523,0.002678,0.000431,0.005171
99209000,0.0324,0.013523,0.002678,0.000431,0.005994
99210000,0.0324,0.013523,0.002678,0.000431,0.005641
99211000,0.0324,0.013523,0.002678,0.000431,0.004231
99212000,0.0324,0.013523,0.002678,0.000431,0.003761
99213000,0.0324,0.013523,0.002678,0.000431,0.003408
99214000,0.0324,0.013523,0.002678,0.000431,0.003173
99215000,0.0324,0.013523,0.002678,0.000431,0.003408
99216000,0.0324,0.013523,0.002678,0.000431,0.005994
99217000,0.0324,0.013523,0.002678,0.000431,0.002351
99218000,0.0324,0.013523,0.002678,0.000431,0.002586
99219000,0.0324,0.013523,0.002678,0.000431,0.002351
99220000,0.0324,0.013523,0.002678,0.000431,0.002821
99221000,0.0324,0.013523,0.002678,0.000431,0.002233
99222000,0.0324,0.013523,0.002678,0.000431,0.002468
99223000,0.0324,0.013523,0.002678,0.000431,0.002586
99224000,0.0324,0.013523,0.002678,0.000431,0.002586
99225000,0.0324,0.013523,0.002678,0.000431,0.002351
99226000,0.0324,0.013523,0.002678,0.000431,0.002468
99227000,0.0324,0.013523,0.002678,0.000431,0.002703
99228000,0.0324,0.013523,0.002678,0.000431,0.002351
99229000,0.0324,0.013523,0.002678,0.000431,0.002351
99230000,0.0324,0.013523,0.002678,0.000431,0.005759
99231000,0.0324,0.013523,0.002678,0.000431,0.000823
99232000,0.0324,0.013523,0.002678,0.000431,0.000705
99233000,0.0324,0.013523,0.002678,0.000431,0.000940
99234000,0.0324,0.013523,0.002678,0.000431,0.000705
99235000,0.0324,0.013523,0.002678,0.000431,0.000940
99236000,0.0324,0.013523,0.002678,0.000431,0.000705
99237000,0.0324,0.013523,0.002678,0.000431,0.013986
99238000,0.0324,0.013523,0.002678,0.000431,0.572010
99239000,0.0324,0.013523,0.002678,0.000431,0.600687
99240000,0.0324,0.013523,0.002678,0.000431,0.133042
99241000,0.0324,0.013523,0.002678,0.000431,0.132572
99242000,0.0324,0.013523,0.002678,0.000431,0.519357
99243000,0.0324,0.013523,0.002678,0.000431,0.310627
99244000,0.0324,0.013523,0.002678,0.000431,0.243636
99245000,0.0324,0.013523,0.002678,0.000431,0.289707
99246000,0.0324,0.013523,0.002678,0.000431,0.139036
99247000,0.0324,0.013523,0.002678,0.000431,0.138448
99248000,0.0324,0.013523,0.002678,0.000431,0.128458
99249000,0.0324,0.013523,0.002678,0.000431,0.326258
99250000,0.0324,0.013523,0.002678,0.000431,0.290060
99251000,0.0324,0.013523,0.002678,0.000431,0.070634
99252000,0.0324,0.013523,0.002678,0.000431,0.058764
99253000,0.0324,0.013523,0.002678,0.000431,0.051477
99254000,0.0324,0.013523,0.002678,0.000431,0.046894
99255000,0.0324,0.013523,0.002678,0.000431,0.046306
99256000,0.0324,0.013523,0.002678,0.000431,0.031968
99257000,0.0324,0.013523,0.002678,0.000431,0.034436
99258000,0.0324,0.013523,0.002678,0.000431,0.034553
99259000,0.0324,0.013523,0.002678,0.000431,0.031262
99260000,0.0324,0.013523,0.002678,0.000431,0.035141
99261000,0.0324,0.013523,0.002678,0.000431,0.026914
99262000,0.0324,0.013523,0.002678,0.000431,0.030087
99263000,0.0324,0.013523,0.002678,0.000431,0.026914
99264000,0.0324,0.013523,0.002678,0.000431,0.024328
99265000,0.0324,0.013523,0.002678,0.000431,0.025034
99266000,0.0324,0.013523,0.002678,0.000431,0.026091
99267000,0.0324,0.013523,0.002678,0.000431,0.022800
99268000,0.0324,0.013523,0.002678,0.000431,0.025974
99269000,0.0324,0.013523,0.002678,0.000431,0.024211
99270000,0.0324,0.013523,0.002678,0.000431,0.022565
99271000,0.0324,0.013523,0.002678,0.000431,0.028559
99272000,0.0324,0.013523,0.002678,0.000431,0.020802
99273000,0.0324,0.013523,0.002678,0.000431,0.021625
99274000,0.0324,0.013523,0.002678,0.000431,0.020685
99275000,0.0324,0.013523,0.002678,0.000431,0.019627
99276000,0.0324,0.013523,0.002678,0.000431,0.018452
99277000,0.0324,0.013523,0.002678,0.000431,0.020332
99278000,0.0324,0.013523,0.002678,0.000431,0.016807
99279000,0.0324,0.013523,0.002678,0.000431,0.015514
99280000,0.0324,0.013523,0.002678,0.000431,0.013163
99281000,0.0324,0.013523,0.002678,0.000431,0.012811
99282000,0.0324,0.013523,0.002678,0.000431,0.013633
99283000,0.0324,0.013523,0.002678,0.000431,0.014573
99284000,0.0324,0.013523,0.002678,0.000431,0.012928
99285000,0.0324,0.013523,0.002678,0.000431,0.013751
99286000,0.0324,0.013523,0.002678,0.000431,0.012105
99287000,0.0324,0.013523,0.002678,0.000431,0.010578
99288000,0.0324,0.013523,0.002678,0.000431,0.011283
99289000,0.0324,0.013523,0.002678,0.000431,0.011635
99290000,0.0324,0.013523,0.002678,0.000431,0.012223
99291000,0.0324,0.013523,0.002678,0.000431,0.010225
99292000,0.0324,0.013523,0.002678,0.000431,0.011283
99293000,0.0324,0.013523,0.002678,0.000431,0.009872
99294000,0.0324,0.013523,0.002678,0.000431,0.010107
99295000,0.0324,0.013523,0.002678,0.000431,0.010225
99296000,0.0324,0.013523,0.002678,0.000431,0.010107
99297000,0.0324,0.013523,0.002678,0.000431,0.010695
99298000,0.0324,0.013523,0.002678,0.000431,0.009167
99299000,0.0324,0.013523,0.002678,0.000431,0.011048
99300000,0.0324,0.013523,0.002678,0.000431,0.010342
99301000,0.0324,0.013523,0.002678,0.000431,0.009872
99302000,0.0324,0.013523,0.002678,0.000431,0.010460
99303000,0.0324,0.013523,0.002678,0.000431,0.009050
99304000,0.0324,0.013523,0.002678,0.000431,0.010930
99305000,0.0324,0.013523,0.002678,0.000431,0.010107
99306000,0.0324,0.013523,0.002678,0.000431,0.008462
99307000,0.0324,0.013523,0.002678,0.000431,0.009167
99308000,0.0324,0.013523,0.002678,0.000431,0.008580
99309000,0.0324,0.013523,0.002678,0.000431,0.008932
99310000,0.0324,0.013523,0.002678,0.000431,0.008932
99311000,0.0324,0.013523,0.002678,0.000431,0.009050
99312000,0.0324,0.013523,0.002678,0.000431,0.008815
99313000,0.0324,0.013523,0.002678,0.000431,0.008697
99314000,0.0324,0.013523,0.002678,0.000431,0.008932
99315000,0.0324,0.013523,0.002678,0.000431,0.008697
99316000,0.0324,0.013523,0.002678,0.000431,0.009050
99317000,0.0324,0.013523,0.002678,0.000431,0.008580
99318000,0.0324,0.013523,0.002678,0.000431,0.008697
99319000,0.0324,0.013523,0.002678,0.000431,0.009520
99320000,0.0324,0.013523,0.002678,0.000431,0.008345
99321000,0.0324,0.013523,0.002678,0.000431,0.009167
99322000,0.0324,0.013523,0.002678,0.000431,0.008932
99323000,0.0324,0.013523,0.002678,0.000431,0.008580
99324000,0.0324,0.013523,0.002678,0.000431,0.009050
99325000,0.0324,0.013523,0.002678,0.000431,0.009285
99326000,0.0324,0.013523,0.002678,0.000431,0.007992
99327000,0.0324,0.013523,0.002678,0.000431,0.009755
99328000,0.0324,0.013523,0.002678,0.000431,0.010813
99329000,0.0324,0.013523,0.002678,0.000431,0.007404
99330000,0.0324,0.013523,0.002678,0.000431,0.007874
99331000,0.0324,0.013523,0.002678,0.000431,0.006582
99332000,0.0324,0.013523,0.002678,0.000431,0.007404
99333000,0.0324,0.013523,0.002678,0.000431,0.007404
99334000,0.0324,0.013523,0.002678,0.000431,0.007052
99335000,0.0324,0.013523,0.002678,0.000431,0.006699
99336000,0.0324,0.013523,0.002678,0.000431,0.006229
99337000,0.0324,0.013523,0.002678,0.000431,0.007287
99338000,0.0324,0.013523,0.002678,0.000431,0.006229
99339000,0.0324,0.013523,0.002678,0.000431,0.006934
99340000,0.0324,0.013523,0.002678,0.000431,0.006582
99341000,0.0324,0.013523,0.002678,0.000431,0.006582
99342000,0.0324,0.013523,0.002678,0.000431,0.006817
99343000,0.0324,0.013523,0.002678,0.000431,0.006229
99344000,0.0324,0.013523,0.002678,0.000431,0.006817
99345000,0.0324,0.013523,0.002678,0.000431,0.006582
99346000,0.0324,0.013523,0.002678,0.000431,0.006699
99347000,0.0324,0.013523,0.002678,0.000431,0.005994
99348000,0.0324,0.013523,0.002678,0.000431,0.007052
99349000,0.0324,0.013523,0.002678,0.000431,0.005759
99350000,0.0324,0.013523,0.002678,0.000431,0.006934
99351000,0.0324,0.013523,0.002678,0.000431,0.006464
99352000,0.0324,0.013523,0.002678,0.000431,0.006347
99353000,0.0324,0.013523,0.002678,0.000431,0.006699
99354000,0.0324,0.013523,0.002678,0.000431,0.005994
99355000,0.0324,0.013523,0.002678,0.000431,0.006934
99356000,0.0324,0.013523,0.002678,0.000431,0.006347
99357000,0.0324,0.013523,0.002678,0.000431,0.006347
99358000,0.0324,0.013523,0.002678,0.000431,0.006582
99359000,0.0324,0.013523,0.002678,0.000431,0.006347
99360000,0.0324,0.013523,0.002678,0.000431,0.006934
99361000,0.0324,0.013523,0.002678,0.000431,0.005876
99362000,0.0324,0.013523,0.002678,0.000431,0.006582
99363000,0.0324,0.013523,0.002678,0.000431,0.006817
99364000,0.0324,0.013523,0.002678,0.000431,0.005994
99365000,0.0324,0.013523,0.002678,0.000431,0.006464
99366000,0.0324,0.013523,0.002678,0.000431,0.006582
99367000,0.0324,0.013523,0.002678,0.000431,0.006229
99368000,0.0324,0.013523,0.002678,0.000431,0.006817
99369000,0.0324,0.013523,0.002678,0.000431,0.006111
99370000,0.0324,0.013523,0.002678,0.000431,0.006582
99371000,0.0324,0.013523,0.002678,0.000431,0.006582
99372000,0.0324,0.013523,0.002678,0.000431,0.006347
99373000,0.0324,0.013523,0.002678,0.000431,0.006582
99374000,0.0324,0.013523,0.002678,0.000431,0.006111
99375000,0.0324,0.013523,0.002678,0.000431,0.006817
99376000,0.0324,0.013523,0.002678,0.000431,0.005759
99377000,0.0324,0.013523,0.002678,0.000431,0.006347
99378000,0.0324,0.013523,0.002678,0.000431,0.006582
99379000,0.0324,0.013523,0.002678,0.000431,0.006347
99380000,0.0324,0.013523,0.002678,0.000431,0.006699
99381000,0.0324,0.013523,0.002678,0.000431,0.006464
