Cycle,Area(mm^2),PeakDynamic(W),SubthresholdLeakage(W),GateLeakage(W),RunTimeDynamic(W)
129000000,0.0324,0.013523,0.002678,0.000431,0.000823
129001000,0.0324,0.013523,0.002678,0.000431,0.000823
129002000,0.0324,0.013523,0.002678,0.000431,0.000940
129003000,0.0324,0.013523,0.002678,0.000431,0.000823
129004000,0.0324,0.013523,0.002678,0.000431,0.000823
129005000,0.0324,0.013523,0.002678,0.000431,0.000705
129006000,0.0324,0.013523,0.002678,0.000431,0.000940
129007000,0.0324,0.013523,0.002678,0.000431,0.000940
129008000,0.0324,0.013523,0.002678,0.000431,0.001763
129009000,0.0324,0.013523,0.002678,0.000431,0.259502
129010000,0.0324,0.013523,0.002678,0.000431,0.648285
129011000,0.0324,0.013523,0.002678,0.000431,0.337071
129012000,0.0324,0.013523,0.002678,0.000431,0.132572
129013000,0.0324,0.013523,0.002678,0.000431,0.146205
129014000,0.0324,0.013523,0.002678,0.000431,0.614555
129015000,0.0324,0.013523,0.002678,0.000431,0.262088
129016000,0.0324,0.013523,0.002678,0.000431,0.300755
129017000,0.0324,0.013523,0.002678,0.000431,0.232001
129018000,0.0324,0.013523,0.002678,0.000431,0.147498
129019000,0.0324,0.013523,0.002678,0.000431,0.123287
129020000,0.0324,0.013523,0.002678,0.000431,0.249042
129021000,0.0324,0.013523,0.002678,0.000431,0.350352
129022000,0.0324,0.013523,0.002678,0.000431,0.053240
129023000,0.0324,0.013523,0.002678,0.000431,0.041487
129024000,0.0324,0.013523,0.002678,0.000431,0.040900
129025000,0.0324,0.013523,0.002678,0.000431,0.037021
129026000,0.0324,0.013523,0.002678,0.000431,0.035141
129027000,0.0324,0.013523,0.002678,0.000431,0.027502
129028000,0.0324,0.013523,0.002678,0.000431,0.031027
129029000,0.0324,0.013523,0.002678,0.000431,0.026914
129030000,0.0324,0.013523,0.002678,0.000431,0.024211
129031000,0.0324,0.013523,0.002678,0.000431,0.023506
129032000,0.0324,0.013523,0.002678,0.000431,0.017629
129033000,0.0324,0.013523,0.002678,0.000431,0.015396
129034000,0.0324,0.013523,0.002678,0.000431,0.016219
129035000,0.0324,0.013523,0.002678,0.000431,0.016454
129036000,0.0324,0.013523,0.002678,0.000431,0.015514
129037000,0.0324,0.013523,0.002678,0.000431,0.017042
129038000,0.0324,0.013523,0.002678,0.000431,0.016454
129039000,0.0324,0.013523,0.002678,0.000431,0.012811
129040000,0.0324,0.013523,0.002678,0.000431,0.013046
129041000,0.0324,0.013523,0.002678,0.000431,0.012576
129042000,0.0324,0.013523,0.002678,0.000431,0.011518
129043000,0.0324,0.013523,0.002678,0.000431,0.014809
129044000,0.0324,0.013523,0.002678,0.000431,0.010813
129045000,0.0324,0.013523,0.002678,0.000431,0.011283
129046000,0.0324,0.013523,0.002678,0.000431,0.011753
129047000,0.0324,0.013523,0.002678,0.000431,0.011048
129048000,0.0324,0.013523,0.002678,0.000431,0.011283
129049000,0.0324,0.013523,0.002678,0.000431,0.011635
129050000,0.0324,0.013523,0.002678,0.000431,0.011518
129051000,0.0324,0.013523,0.002678,0.000431,0.010930
129052000,0.0324,0.013523,0.002678,0.000431,0.014691
129053000,0.0324,0.013523,0.002678,0.000431,0.010695
129054000,0.0324,0.013523,0.002678,0.000431,0.011165
129055000,0.0324,0.013523,0.002678,0.000431,0.008580
129056000,0.0324,0.013523,0.002678,0.000431,0.007874
129057000,0.0324,0.013523,0.002678,0.000431,0.009637
129058000,0.0324,0.013523,0.002678,0.000431,0.007052
129059000,0.0324,0.013523,0.002678,0.000431,0.007169
129060000,0.0324,0.013523,0.002678,0.000431,0.006582
129061000,0.0324,0.013523,0.002678,0.000431,0.006464
129062000,0.0324,0.013523,0.002678,0.000431,0.005759
129063000,0.0324,0.013523,0.002678,0.000431,0.007052
129064000,0.0324,0.013523,0.002678,0.000431,0.006347
129065000,0.0324,0.013523,0.002678,0.000431,0.006229
129066000,0.0324,0.013523,0.002678,0.000431,0.006817
129067000,0.0324,0.013523,0.002678,0.000431,0.006111
129068000,0.0324,0.013523,0.002678,0.000431,0.006464
129069000,0.0324,0.013523,0.002678,0.000431,0.006347
129070000,0.0324,0.013523,0.002678,0.000431,0.006699
129071000,0.0324,0.013523,0.002678,0.000431,0.006229
129072000,0.0324,0.013523,0.002678,0.000431,0.006464
129073000,0.0324,0.013523,0.002678,0.000431,0.006464
129074000,0.0324,0.013523,0.002678,0.000431,0.006464
129075000,0.0324,0.013523,0.002678,0.000431,0.006229
129076000,0.0324,0.013523,0.002678,0.000431,0.005994
129077000,0.0324,0.013523,0.002678,0.000431,0.007052
129078000,0.0324,0.013523,0.002678,0.000431,0.006229
129079000,0.0324,0.013523,0.002678,0.000431,0.005406
129080000,0.0324,0.013523,0.002678,0.000431,0.007169
129081000,0.0324,0.013523,0.002678,0.000431,0.005994
129082000,0.0324,0.013523,0.002678,0.000431,0.005289
129083000,0.0324,0.013523,0.002678,0.000431,0.004936
129084000,0.0324,0.013523,0.002678,0.000431,0.004701
129085000,0.0324,0.013523,0.002678,0.000431,0.005054
129086000,0.0324,0.013523,0.002678,0.000431,0.005171
129087000,0.0324,0.013523,0.002678,0.000431,0.005171
129088000,0.0324,0.013523,0.002678,0.000431,0.004466
129089000,0.0324,0.013523,0.002678,0.000431,0.005054
129090000,0.0324,0.013523,0.002678,0.000431,0.005171
129091000,0.0324,0.013523,0.002678,0.000431,0.005171
129092000,0.0324,0.013523,0.002678,0.000431,0.004466
129093000,0.0324,0.013523,0.002678,0.000431,0.005289
129094000,0.0324,0.013523,0.002678,0.000431,0.004466
129095000,0.0324,0.013523,0.002678,0.000431,0.005289
129096000,0.0324,0.013523,0.002678,0.000431,0.005171
129097000,0.0324,0.013523,0.002678,0.000431,0.004584
129098000,0.0324,0.013523,0.002678,0.000431,0.008815
129099000,0.0324,0.013523,0.002678,0.000431,0.003291
129100000,0.0324,0.013523,0.002678,0.000431,0.003643
129101000,0.0324,0.013523,0.002678,0.000431,0.003056
129102000,0.0324,0.013523,0.002678,0.000431,0.003291
129103000,0.0324,0.013523,0.002678,0.000431,0.003056
129104000,0.0324,0.013523,0.002678,0.000431,0.003408
129105000,0.0324,0.013523,0.002678,0.000431,0.003408
129106000,0.0324,0.013523,0.002678,0.000431,0.003056
129107000,0.0324,0.013523,0.002678,0.000431,0.005759
129108000,0.0324,0.013523,0.002678,0.000431,0.002351
129109000,0.0324,0.013523,0.002678,0.000431,0.002468
129110000,0.0324,0.013523,0.002678,0.000431,0.002351
129111000,0.0324,0.013523,0.002678,0.000431,0.002468
129112000,0.0324,0.013523,0.002678,0.000431,0.002233
129113000,0.0324,0.013523,0.002678,0.000431,0.002468
129114000,0.0324,0.013523,0.002678,0.000431,0.002468
129115000,0.0324,0.013523,0.002678,0.000431,0.002233
129116000,0.0324,0.013523,0.002678,0.000431,0.002821
129117000,0.0324,0.013523,0.002678,0.000431,0.002233
129118000,0.0324,0.013523,0.002678,0.000431,0.002468
129119000,0.0324,0.013523,0.002678,0.000431,0.002233
129120000,0.0324,0.013523,0.002678,0.000431,0.002468
129121000,0.0324,0.013523,0.002678,0.000431,0.002703
129122000,0.0324,0.013523,0.002678,0.000431,0.001998
129123000,0.0324,0.013523,0.002678,0.000431,0.002703
129124000,0.0324,0.013523,0.002678,0.000431,0.002233
129125000,0.0324,0.013523,0.002678,0.000431,0.002586
129126000,0.0324,0.013523,0.002678,0.000431,0.002468
129127000,0.0324,0.013523,0.002678,0.000431,0.002233
129128000,0.0324,0.013523,0.002678,0.000431,0.002351
129129000,0.0324,0.013523,0.002678,0.000431,0.002586
129130000,0.0324,0.013523,0.002678,0.000431,0.002586
129131000,0.0324,0.013523,0.002678,0.000431,0.003996
129132000,0.0324,0.013523,0.002678,0.000431,0.001763
129133000,0.0324,0.013523,0.002678,0.000431,0.001645
129134000,0.0324,0.013523,0.002678,0.000431,0.001645
129135000,0.0324,0.013523,0.002678,0.000431,0.001410
129136000,0.0324,0.013523,0.002678,0.000431,0.001645
129137000,0.0324,0.013523,0.002678,0.000431,0.001410
129138000,0.0324,0.013523,0.002678,0.000431,0.001645
129139000,0.0324,0.013523,0.002678,0.000431,0.001880
129140000,0.0324,0.013523,0.002678,0.000431,0.001175
129141000,0.0324,0.013523,0.002678,0.000431,0.001880
129142000,0.0324,0.013523,0.002678,0.000431,0.001293
129143000,0.0324,0.013523,0.002678,0.000431,0.001763
129144000,0.0324,0.013523,0.002678,0.000431,0.001645
129145000,0.0324,0.013523,0.002678,0.000431,0.001410
129146000,0.0324,0.013523,0.002678,0.000431,0.001880
129147000,0.0324,0.013523,0.002678,0.000431,0.001293
129148000,0.0324,0.013523,0.002678,0.000431,0.001763
129149000,0.0324,0.013523,0.002678,0.000431,0.001645
129150000,0.0324,0.013523,0.002678,0.000431,0.001410
129151000,0.0324,0.013523,0.002678,0.000431,0.001645
129152000,0.0324,0.013523,0.002678,0.000431,0.001528
129153000,0.0324,0.013523,0.002678,0.000431,0.001528
129154000,0.0324,0.013523,0.002678,0.000431,0.001645
129155000,0.0324,0.013523,0.002678,0.000431,0.001645
129156000,0.0324,0.013523,0.002678,0.000431,0.001410
129157000,0.0324,0.013523,0.002678,0.000431,0.001645
129158000,0.0324,0.013523,0.002678,0.000431,0.001645
129159000,0.0324,0.013523,0.002678,0.000431,0.001645
129160000,0.0324,0.013523,0.002678,0.000431,0.001410
129161000,0.0324,0.013523,0.002678,0.000431,0.001645
129162000,0.0324,0.013523,0.002678,0.000431,0.001410
129163000,0.0324,0.013523,0.002678,0.000431,0.001645
129164000,0.0324,0.013523,0.002678,0.000431,0.001880
129165000,0.0324,0.013523,0.002678,0.000431,0.001175
129166000,0.0324,0.013523,0.002678,0.000431,0.001880
129167000,0.0324,0.013523,0.002678,0.000431,0.001410
129168000,0.0324,0.013523,0.002678,0.000431,0.001645
129169000,0.0324,0.013523,0.002678,0.000431,0.001645
129170000,0.0324,0.013523,0.002678,0.000431,0.001410
129171000,0.0324,0.013523,0.002678,0.000431,0.001645
129172000,0.0324,0.013523,0.002678,0.000431,0.001645
129173000,0.0324,0.013523,0.002678,0.000431,0.001645
129174000,0.0324,0.013523,0.002678,0.000431,0.001410
129175000,0.0324,0.013523,0.002678,0.000431,0.001645
129176000,0.0324,0.013523,0.002678,0.000431,0.001645
129177000,0.0324,0.013523,0.002678,0.000431,0.001645
129178000,0.0324,0.013523,0.002678,0.000431,0.001410
129179000,0.0324,0.013523,0.002678,0.000431,0.001645
129180000,0.0324,0.013523,0.002678,0.000431,0.001410
129181000,0.0324,0.013523,0.002678,0.000431,0.001645
129182000,0.0324,0.013523,0.002678,0.000431,0.001880
129183000,0.0324,0.013523,0.002678,0.000431,0.001175
129184000,0.0324,0.013523,0.002678,0.000431,0.001880
129185000,0.0324,0.013523,0.002678,0.000431,0.001645
129186000,0.0324,0.013523,0.002678,0.000431,0.001645
129187000,0.0324,0.013523,0.002678,0.000431,0.001645
129188000,0.0324,0.013523,0.002678,0.000431,0.001645
129189000,0.0324,0.013523,0.002678,0.000431,0.001645
129190000,0.0324,0.013523,0.002678,0.000431,0.001645
129191000,0.0324,0.013523,0.002678,0.000431,0.001645
129192000,0.0324,0.013523,0.002678,0.000431,0.001763
129193000,0.0324,0.013523,0.002678,0.000431,0.001528
129194000,0.0324,0.013523,0.002678,0.000431,0.001645
129195000,0.0324,0.013523,0.002678,0.000431,0.001645
129196000,0.0324,0.013523,0.002678,0.000431,0.001645
129197000,0.0324,0.013523,0.002678,0.000431,0.001528
129198000,0.0324,0.013523,0.002678,0.000431,0.001763
129199000,0.0324,0.013523,0.002678,0.000431,0.001880
129200000,0.0324,0.013523,0.002678,0.000431,0.001410
129201000,0.0324,0.013523,0.002678,0.000431,0.001645
129202000,0.0324,0.013523,0.002678,0.000431,0.001645
129203000,0.0324,0.013523,0.002678,0.000431,0.001763
129204000,0.0324,0.013523,0.002678,0.000431,0.001528
129205000,0.0324,0.013523,0.002678,0.000431,0.001645
129206000,0.0324,0.013523,0.002678,0.000431,0.001880
129207000,0.0324,0.013523,0.002678,0.000431,0.001410
129208000,0.0324,0.013523,0.002678,0.000431,0.001645
129209000,0.0324,0.013523,0.002678,0.000431,0.001763
129210000,0.0324,0.013523,0.002678,0.000431,0.001763
129211000,0.0324,0.013523,0.002678,0.000431,0.001410
129212000,0.0324,0.013523,0.002678,0.000431,0.001645
129213000,0.0324,0.013523,0.002678,0.000431,0.001880
129214000,0.0324,0.013523,0.002678,0.000431,0.001293
129215000,0.0324,0.013523,0.002678,0.000431,0.001763
129216000,0.0324,0.013523,0.002678,0.000431,0.001645
129217000,0.0324,0.013523,0.002678,0.000431,0.001410
129218000,0.0324,0.013523,0.002678,0.000431,0.001645
129219000,0.0324,0.013523,0.002678,0.000431,0.001528
129220000,0.0324,0.013523,0.002678,0.000431,0.001528
129221000,0.0324,0.013523,0.002678,0.000431,0.001645
129222000,0.0324,0.013523,0.002678,0.000431,0.001645
129223000,0.0324,0.013523,0.002678,0.000431,0.001410
129224000,0.0324,0.013523,0.002678,0.000431,0.001763
129225000,0.0324,0.013523,0.002678,0.000431,0.001763
129226000,0.0324,0.013523,0.002678,0.000431,0.001645
129227000,0.0324,0.013523,0.002678,0.000431,0.001410
129228000,0.0324,0.013523,0.002678,0.000431,0.001880
129229000,0.0324,0.013523,0.002678,0.000431,0.001645
129230000,0.0324,0.013523,0.002678,0.000431,0.001645
129231000,0.0324,0.013523,0.002678,0.000431,0.001645
129232000,0.0324,0.013523,0.002678,0.000431,0.001645
129233000,0.0324,0.013523,0.002678,0.000431,0.001645
129234000,0.0324,0.013523,0.002678,0.000431,0.001645
129235000,0.0324,0.013523,0.002678,0.000431,0.001645
129236000,0.0324,0.013523,0.002678,0.000431,0.001763
129237000,0.0324,0.013523,0.002678,0.000431,0.001528
129238000,0.0324,0.013523,0.002678,0.000431,0.001645
129239000,0.0324,0.013523,0.002678,0.000431,0.001645
129240000,0.0324,0.013523,0.002678,0.000431,0.001645
129241000,0.0324,0.013523,0.002678,0.000431,0.001528
129242000,0.0324,0.013523,0.002678,0.000431,0.001763
129243000,0.0324,0.013523,0.002678,0.000431,0.001880
129244000,0.0324,0.013523,0.002678,0.000431,0.001175
129245000,0.0324,0.013523,0.002678,0.000431,0.001880
129246000,0.0324,0.013523,0.002678,0.000431,0.001293
129247000,0.0324,0.013523,0.002678,0.000431,0.001763
129248000,0.0324,0.013523,0.002678,0.000431,0.001645
129249000,0.0324,0.013523,0.002678,0.000431,0.001410
129250000,0.0324,0.013523,0.002678,0.000431,0.001645
129251000,0.0324,0.013523,0.002678,0.000431,0.001528
129252000,0.0324,0.013523,0.002678,0.000431,0.001528
129253000,0.0324,0.013523,0.002678,0.000431,0.001645
129254000,0.0324,0.013523,0.002678,0.000431,0.001645
129255000,0.0324,0.013523,0.002678,0.000431,0.001880
129256000,0.0324,0.013523,0.002678,0.000431,0.001293
129257000,0.0324,0.013523,0.002678,0.000431,0.001763
129258000,0.0324,0.013523,0.002678,0.000431,0.001880
129259000,0.0324,0.013523,0.002678,0.000431,0.001645
129260000,0.0324,0.013523,0.002678,0.000431,0.001410
129261000,0.0324,0.013523,0.002678,0.000431,0.001645
129262000,0.0324,0.013523,0.002678,0.000431,0.001880
129263000,0.0324,0.013523,0.002678,0.000431,0.001645
129264000,0.0324,0.013523,0.002678,0.000431,0.001410
129265000,0.0324,0.013523,0.002678,0.000431,0.001880
129266000,0.0324,0.013523,0.002678,0.000431,0.001645
129267000,0.0324,0.013523,0.002678,0.000431,0.001410
129268000,0.0324,0.013523,0.002678,0.000431,0.001763
129269000,0.0324,0.013523,0.002678,0.000431,0.001763
129270000,0.0324,0.013523,0.002678,0.000431,0.001645
129271000,0.0324,0.013523,0.002678,0.000431,0.001410
129272000,0.0324,0.013523,0.002678,0.000431,0.001880
129273000,0.0324,0.013523,0.002678,0.000431,0.054651
129274000,0.0324,0.013523,0.002678,0.000431,0.452484
129275000,0.0324,0.013523,0.002678,0.000431,0.601744
129276000,0.0324,0.013523,0.002678,0.000431,0.131161
129277000,0.0324,0.013523,0.002678,0.000431,0.134922
129278000,0.0324,0.013523,0.002678,0.000431,0.553675
129279000,0.0324,0.013523,0.002678,0.000431,0.285006
129280000,0.0324,0.013523,0.002678,0.000431,0.241168
129281000,0.0324,0.013523,0.002678,0.000431,0.278542
129282000,0.0324,0.013523,0.002678,0.000431,0.136333
129283000,0.0324,0.013523,0.002678,0.000431,0.148321
129284000,0.0324,0.013523,0.002678,0.000431,0.141151
129285000,0.0324,0.013523,0.002678,0.000431,0.222128
129286000,0.0324,0.013523,0.002678,0.000431,0.348001
129287000,0.0324,0.013523,0.002678,0.000431,0.026561
129288000,0.0324,0.013523,0.002678,0.000431,0.024916
129289000,0.0324,0.013523,0.002678,0.000431,0.025621
129290000,0.0324,0.013523,0.002678,0.000431,0.027737
129291000,0.0324,0.013523,0.002678,0.000431,0.024328
129292000,0.0324,0.013523,0.002678,0.000431,0.025621
129293000,0.0324,0.013523,0.002678,0.000431,0.023388
129294000,0.0324,0.013523,0.002678,0.000431,0.021625
129295000,0.0324,0.013523,0.002678,0.000431,0.023036
129296000,0.0324,0.013523,0.002678,0.000431,0.019157
129297000,0.0324,0.013523,0.002678,0.000431,0.019980
129298000,0.0324,0.013523,0.002678,0.000431,0.018452
129299000,0.0324,0.013523,0.002678,0.000431,0.019745
129300000,0.0324,0.013523,0.002678,0.000431,0.018569
129301000,0.0324,0.013523,0.002678,0.000431,0.018922
129302000,0.0324,0.013523,0.002678,0.000431,0.018452
129303000,0.0324,0.013523,0.002678,0.000431,0.019627
129304000,0.0324,0.013523,0.002678,0.000431,0.020685
129305000,0.0324,0.013523,0.002678,0.000431,0.018922
129306000,0.0324,0.013523,0.002678,0.000431,0.016219
129307000,0.0324,0.013523,0.002678,0.000431,0.016336
129308000,0.0324,0.013523,0.002678,0.000431,0.016454
129309000,0.0324,0.013523,0.002678,0.000431,0.016689
129310000,0.0324,0.013523,0.002678,0.000431,0.018569
129311000,0.0324,0.013523,0.002678,0.000431,0.014456
129312000,0.0324,0.013523,0.002678,0.000431,0.014573
129313000,0.0324,0.013523,0.002678,0.000431,0.013046
129314000,0.0324,0.013523,0.002678,0.000431,0.014103
129315000,0.0324,0.013523,0.002678,0.000431,0.013516
129316000,0.0324,0.013523,0.002678,0.000431,0.014809
129317000,0.0324,0.013523,0.002678,0.000431,0.012458
129318000,0.0324,0.013523,0.002678,0.000431,0.013163
129319000,0.0324,0.013523,0.002678,0.000431,0.012811
129320000,0.0324,0.013523,0.002678,0.000431,0.012340
129321000,0.0324,0.013523,0.002678,0.000431,0.013398
129322000,0.0324,0.013523,0.002678,0.000431,0.012458
129323000,0.0324,0.013523,0.002678,0.000431,0.015866
129324000,0.0324,0.013523,0.002678,0.000431,0.010695
129325000,0.0324,0.013523,0.002678,0.000431,0.011400
129326000,0.0324,0.013523,0.002678,0.000431,0.010813
129327000,0.0324,0.013523,0.002678,0.000431,0.010695
129328000,0.0324,0.013523,0.002678,0.000431,0.012693
129329000,0.0324,0.013523,0.002678,0.000431,0.009872
129330000,0.0324,0.013523,0.002678,0.000431,0.010578
129331000,0.0324,0.013523,0.002678,0.000431,0.009755
129332000,0.0324,0.013523,0.002678,0.000431,0.010342
129333000,0.0324,0.013523,0.002678,0.000431,0.010107
129334000,0.0324,0.013523,0.002678,0.000431,0.009872
129335000,0.0324,0.013523,0.002678,0.000431,0.010578
129336000,0.0324,0.013523,0.002678,0.000431,0.009637
129337000,0.0324,0.013523,0.002678,0.000431,0.010695
129338000,0.0324,0.013523,0.002678,0.000431,0.009520
129339000,0.0324,0.013523,0.002678,0.000431,0.010578
129340000,0.0324,0.013523,0.002678,0.000431,0.009872
129341000,0.0324,0.013523,0.002678,0.000431,0.010107
129342000,0.0324,0.013523,0.002678,0.000431,0.009872
129343000,0.0324,0.013523,0.002678,0.000431,0.010578
129344000,0.0324,0.013523,0.002678,0.000431,0.010578
129345000,0.0324,0.013523,0.002678,0.000431,0.009637
129346000,0.0324,0.013523,0.002678,0.000431,0.010107
129347000,0.0324,0.013523,0.002678,0.000431,0.010342
129348000,0.0324,0.013523,0.002678,0.000431,0.010578
129349000,0.0324,0.013523,0.002678,0.000431,0.009755
129350000,0.0324,0.013523,0.002678,0.000431,0.010107
129351000,0.0324,0.013523,0.002678,0.000431,0.010225
129352000,0.0324,0.013523,0.002678,0.000431,0.010460
129353000,0.0324,0.013523,0.002678,0.000431,0.010342
129354000,0.0324,0.013523,0.002678,0.000431,0.009637
129355000,0.0324,0.013523,0.002678,0.000431,0.010460
129356000,0.0324,0.013523,0.002678,0.000431,0.009050
129357000,0.0324,0.013523,0.002678,0.000431,0.009402
129358000,0.0324,0.013523,0.002678,0.000431,0.010107
129359000,0.0324,0.013523,0.002678,0.000431,0.009050
129360000,0.0324,0.013523,0.002678,0.000431,0.009167
129361000,0.0324,0.013523,0.002678,0.000431,0.009167
129362000,0.0324,0.013523,0.002678,0.000431,0.009872
129363000,0.0324,0.013523,0.002678,0.000431,0.009755
129364000,0.0324,0.013523,0.002678,0.000431,0.010107
129365000,0.0324,0.013523,0.002678,0.000431,0.008462
129366000,0.0324,0.013523,0.002678,0.000431,0.008815
129367000,0.0324,0.013523,0.002678,0.000431,0.008580
129368000,0.0324,0.013523,0.002678,0.000431,0.008109
129369000,0.0324,0.013523,0.002678,0.000431,0.008932
129370000,0.0324,0.013523,0.002678,0.000431,0.008109
129371000,0.0324,0.013523,0.002678,0.000431,0.008815
129372000,0.0324,0.013523,0.002678,0.000431,0.008462
129373000,0.0324,0.013523,0.002678,0.000431,0.008462
129374000,0.0324,0.013523,0.002678,0.000431,0.008697
