Cycle,Area(mm^2),PeakDynamic(W),SubthresholdLeakage(W),GateLeakage(W),RunTimeDynamic(W)
39000000,0.0324,0.013523,0.002678,0.000431,0.000823
39001000,0.0324,0.013523,0.002678,0.000431,0.000940
39002000,0.0324,0.013523,0.002678,0.000431,0.000823
39003000,0.0324,0.013523,0.002678,0.000431,0.196037
39004000,0.0324,0.013523,0.002678,0.000431,0.458830
39005000,0.0324,0.013523,0.002678,0.000431,0.507134
39006000,0.0324,0.013523,0.002678,0.000431,0.133630
39007000,0.0324,0.013523,0.002678,0.000431,0.131984
39008000,0.0324,0.013523,0.002678,0.000431,0.565781
39009000,0.0324,0.013523,0.002678,0.000431,0.245986
39010000,0.0324,0.013523,0.002678,0.000431,0.234939
39011000,0.0324,0.013523,0.002678,0.000431,0.323555
39012000,0.0324,0.013523,0.002678,0.000431,0.142914
39013000,0.0324,0.013523,0.002678,0.000431,0.143502
39014000,0.0324,0.013523,0.002678,0.000431,0.115060
39015000,0.0324,0.013523,0.002678,0.000431,0.358931
39016000,0.0324,0.013523,0.002678,0.000431,0.221188
39017000,0.0324,0.013523,0.002678,0.000431,0.021625
39018000,0.0324,0.013523,0.002678,0.000431,0.020920
39019000,0.0324,0.013523,0.002678,0.000431,0.012576
39020000,0.0324,0.013523,0.002678,0.000431,0.010578
39021000,0.0324,0.013523,0.002678,0.000431,0.012458
39022000,0.0324,0.013523,0.002678,0.000431,0.011988
39023000,0.0324,0.013523,0.002678,0.000431,0.011165
39024000,0.0324,0.013523,0.002678,0.000431,0.011635
39025000,0.0324,0.013523,0.002678,0.000431,0.008932
39026000,0.0324,0.013523,0.002678,0.000431,0.005876
39027000,0.0324,0.013523,0.002678,0.000431,0.007052
39028000,0.0324,0.013523,0.002678,0.000431,0.002468
39029000,0.0324,0.013523,0.002678,0.000431,0.003643
39030000,0.0324,0.013523,0.002678,0.000431,0.001410
39031000,0.0324,0.013523,0.002678,0.000431,0.001880
39032000,0.0324,0.013523,0.002678,0.000431,0.001763
39033000,0.0324,0.013523,0.002678,0.000431,0.001645
39034000,0.0324,0.013523,0.002678,0.000431,0.001645
39035000,0.0324,0.013523,0.002678,0.000431,0.001763
39036000,0.0324,0.013523,0.002678,0.000431,0.001763
39037000,0.0324,0.013523,0.002678,0.000431,0.001645
39038000,0.0324,0.013523,0.002678,0.000431,0.002821
39039000,0.0324,0.013523,0.002678,0.000431,0.013868
39040000,0.0324,0.013523,0.002678,0.000431,0.456832
39041000,0.0324,0.013523,0.002678,0.000431,0.590227
39042000,0.0324,0.013523,0.002678,0.000431,0.133982
39043000,0.0324,0.013523,0.002678,0.000431,0.131161
39044000,0.0324,0.013523,0.002678,0.000431,0.281010
39045000,0.0324,0.013523,0.002678,0.000431,0.477635
39046000,0.0324,0.013523,0.002678,0.000431,0.238347
39047000,0.0324,0.013523,0.002678,0.000431,0.299109
39048000,0.0324,0.013523,0.002678,0.000431,0.218602
39049000,0.0324,0.013523,0.002678,0.000431,0.143972
39050000,0.0324,0.013523,0.002678,0.000431,0.162306
39051000,0.0324,0.013523,0.002678,0.000431,0.129751
39052000,0.0324,0.013523,0.002678,0.000431,0.452013
39053000,0.0324,0.013523,0.002678,0.000431,0.042193
39054000,0.0324,0.013523,0.002678,0.000431,0.029029
39055000,0.0324,0.013523,0.002678,0.000431,0.021390
39056000,0.0324,0.013523,0.002678,0.000431,0.015514
39057000,0.0324,0.013523,0.002678,0.000431,0.018217
39058000,0.0324,0.013523,0.002678,0.000431,0.008815
39059000,0.0324,0.013523,0.002678,0.000431,0.010225
39060000,0.0324,0.013523,0.002678,0.000431,0.008932
39061000,0.0324,0.013523,0.002678,0.000431,0.006582
39062000,0.0324,0.013523,0.002678,0.000431,0.006699
39063000,0.0324,0.013523,0.002678,0.000431,0.006817
39064000,0.0324,0.013523,0.002678,0.000431,0.009050
39065000,0.0324,0.013523,0.002678,0.000431,0.005876
39066000,0.0324,0.013523,0.002678,0.000431,0.005641
39067000,0.0324,0.013523,0.002678,0.000431,0.006111
39068000,0.0324,0.013523,0.002678,0.000431,0.005759
39069000,0.0324,0.013523,0.002678,0.000431,0.010813
39070000,0.0324,0.013523,0.002678,0.000431,0.005406
39071000,0.0324,0.013523,0.002678,0.000431,0.002468
39072000,0.0324,0.013523,0.002678,0.000431,0.002821
39073000,0.0324,0.013523,0.002678,0.000431,0.002233
39074000,0.0324,0.013523,0.002678,0.000431,0.002703
39075000,0.0324,0.013523,0.002678,0.000431,0.002351
39076000,0.0324,0.013523,0.002678,0.000431,0.002586
39077000,0.0324,0.013523,0.002678,0.000431,0.002586
39078000,0.0324,0.013523,0.002678,0.000431,0.002351
39079000,0.0324,0.013523,0.002678,0.000431,0.002586
39080000,0.0324,0.013523,0.002678,0.000431,0.003643
39081000,0.0324,0.013523,0.002678,0.000431,0.002821
39082000,0.0324,0.013523,0.002678,0.000431,0.001645
39083000,0.0324,0.013523,0.002678,0.000431,0.001763
39084000,0.0324,0.013523,0.002678,0.000431,0.001528
39085000,0.0324,0.013523,0.002678,0.000431,0.001763
39086000,0.0324,0.013523,0.002678,0.000431,0.001645
39087000,0.0324,0.013523,0.002678,0.000431,0.001645
39088000,0.0324,0.013523,0.002678,0.000431,0.001645
39089000,0.0324,0.013523,0.002678,0.000431,0.001645
39090000,0.0324,0.013523,0.002678,0.000431,0.001880
39091000,0.0324,0.013523,0.002678,0.000431,0.001645
39092000,0.0324,0.013523,0.002678,0.000431,0.001645
39093000,0.0324,0.013523,0.002678,0.000431,0.001645
39094000,0.0324,0.013523,0.002678,0.000431,0.001528
39095000,0.0324,0.013523,0.002678,0.000431,0.001763
39096000,0.0324,0.013523,0.002678,0.000431,0.001763
39097000,0.0324,0.013523,0.002678,0.000431,0.001645
39098000,0.0324,0.013523,0.002678,0.000431,0.001645
39099000,0.0324,0.013523,0.002678,0.000431,0.001528
39100000,0.0324,0.013523,0.002678,0.000431,0.001880
39101000,0.0324,0.013523,0.002678,0.000431,0.001645
39102000,0.0324,0.013523,0.002678,0.000431,0.001645
39103000,0.0324,0.013523,0.002678,0.000431,0.001763
39104000,0.0324,0.013523,0.002678,0.000431,0.001410
39105000,0.0324,0.013523,0.002678,0.000431,0.001880
39106000,0.0324,0.013523,0.002678,0.000431,0.001763
39107000,0.0324,0.013523,0.002678,0.000431,0.001528
39108000,0.0324,0.013523,0.002678,0.000431,0.001763
39109000,0.0324,0.013523,0.002678,0.000431,0.001528
39110000,0.0324,0.013523,0.002678,0.000431,0.001880
39111000,0.0324,0.013523,0.002678,0.000431,0.001645
39112000,0.0324,0.013523,0.002678,0.000431,0.004584
39113000,0.0324,0.013523,0.002678,0.000431,0.383612
39114000,0.0324,0.013523,0.002678,0.000431,0.666267
39115000,0.0324,0.013523,0.002678,0.000431,0.131161
39116000,0.0324,0.013523,0.002678,0.000431,0.133982
39117000,0.0324,0.013523,0.002678,0.000431,0.148321
39118000,0.0324,0.013523,0.002678,0.000431,0.593987
39119000,0.0324,0.013523,0.002678,0.000431,0.273841
39120000,0.0324,0.013523,0.002678,0.000431,0.275369
39121000,0.0324,0.013523,0.002678,0.000431,0.215899
39122000,0.0324,0.013523,0.002678,0.000431,0.137155
39123000,0.0324,0.013523,0.002678,0.000431,0.149261
39124000,0.0324,0.013523,0.002678,0.000431,0.108243
39125000,0.0324,0.013523,0.002678,0.000431,0.415815
39126000,0.0324,0.013523,0.002678,0.000431,0.125638
39127000,0.0324,0.013523,0.002678,0.000431,0.016336
39128000,0.0324,0.013523,0.002678,0.000431,0.009050
39129000,0.0324,0.013523,0.002678,0.000431,0.011400
39130000,0.0324,0.013523,0.002678,0.000431,0.006347
39131000,0.0324,0.013523,0.002678,0.000431,0.006347
39132000,0.0324,0.013523,0.002678,0.000431,0.005759
39133000,0.0324,0.013523,0.002678,0.000431,0.005759
39134000,0.0324,0.013523,0.002678,0.000431,0.006464
39135000,0.0324,0.013523,0.002678,0.000431,0.007874
39136000,0.0324,0.013523,0.002678,0.000431,0.004936
39137000,0.0324,0.013523,0.002678,0.000431,0.006817
39138000,0.0324,0.013523,0.002678,0.000431,0.004349
39139000,0.0324,0.013523,0.002678,0.000431,0.004231
39140000,0.0324,0.013523,0.002678,0.000431,0.003878
39141000,0.0324,0.013523,0.002678,0.000431,0.004349
39142000,0.0324,0.013523,0.002678,0.000431,0.004231
39143000,0.0324,0.013523,0.002678,0.000431,0.004113
39144000,0.0324,0.013523,0.002678,0.000431,0.004349
39145000,0.0324,0.013523,0.002678,0.000431,0.003996
39146000,0.0324,0.013523,0.002678,0.000431,0.004231
39147000,0.0324,0.013523,0.002678,0.000431,0.004231
39148000,0.0324,0.013523,0.002678,0.000431,0.004349
39149000,0.0324,0.013523,0.002678,0.000431,0.004113
39150000,0.0324,0.013523,0.002678,0.000431,0.004231
39151000,0.0324,0.013523,0.002678,0.000431,0.004231
39152000,0.0324,0.013523,0.002678,0.000431,0.004231
39153000,0.0324,0.013523,0.002678,0.000431,0.004113
39154000,0.0324,0.013523,0.002678,0.000431,0.004231
39155000,0.0324,0.013523,0.002678,0.000431,0.004113
39156000,0.0324,0.013523,0.002678,0.000431,0.004349
39157000,0.0324,0.013523,0.002678,0.000431,0.005994
39158000,0.0324,0.013523,0.002678,0.000431,0.003408
39159000,0.0324,0.013523,0.002678,0.000431,0.003526
39160000,0.0324,0.013523,0.002678,0.000431,0.003173
39161000,0.0324,0.013523,0.002678,0.000431,0.003408
39162000,0.0324,0.013523,0.002678,0.000431,0.003408
39163000,0.0324,0.013523,0.002678,0.000431,0.004701
39164000,0.0324,0.013523,0.002678,0.000431,0.001645
39165000,0.0324,0.013523,0.002678,0.000431,0.001763
39166000,0.0324,0.013523,0.002678,0.000431,0.001880
39167000,0.0324,0.013523,0.002678,0.000431,0.001528
39168000,0.0324,0.013523,0.002678,0.000431,0.001763
39169000,0.0324,0.013523,0.002678,0.000431,0.001645
39170000,0.0324,0.013523,0.002678,0.000431,0.001880
39171000,0.0324,0.013523,0.002678,0.000431,0.001763
39172000,0.0324,0.013523,0.002678,0.000431,0.001528
39173000,0.0324,0.013523,0.002678,0.000431,0.001880
39174000,0.0324,0.013523,0.002678,0.000431,0.001528
39175000,0.0324,0.013523,0.002678,0.000431,0.001880
39176000,0.0324,0.013523,0.002678,0.000431,0.001645
39177000,0.0324,0.013523,0.002678,0.000431,0.001763
39178000,0.0324,0.013523,0.002678,0.000431,0.001645
39179000,0.0324,0.013523,0.002678,0.000431,0.003173
39180000,0.0324,0.013523,0.002678,0.000431,0.000940
39181000,0.0324,0.013523,0.002678,0.000431,0.000705
39182000,0.0324,0.013523,0.002678,0.000431,0.000940
39183000,0.0324,0.013523,0.002678,0.000431,0.000823
39184000,0.0324,0.013523,0.002678,0.000431,0.000705
39185000,0.0324,0.013523,0.002678,0.000431,0.000823
39186000,0.0324,0.013523,0.002678,0.000431,0.000940
39187000,0.0324,0.013523,0.002678,0.000431,0.000705
39188000,0.0324,0.013523,0.002678,0.000431,0.000940
39189000,0.0324,0.013523,0.002678,0.000431,0.000823
39190000,0.0324,0.013523,0.002678,0.000431,0.000823
39191000,0.0324,0.013523,0.002678,0.000431,0.000940
39192000,0.0324,0.013523,0.002678,0.000431,0.000705
39193000,0.0324,0.013523,0.002678,0.000431,0.000940
39194000,0.0324,0.013523,0.002678,0.000431,0.000823
39195000,0.0324,0.013523,0.002678,0.000431,0.000823
39196000,0.0324,0.013523,0.002678,0.000431,0.000940
39197000,0.0324,0.013523,0.002678,0.000431,0.001528
39198000,0.0324,0.013523,0.002678,0.000431,0.315916
39199000,0.0324,0.013523,0.002678,0.000431,0.634182
39200000,0.0324,0.013523,0.002678,0.000431,0.183814
39201000,0.0324,0.013523,0.002678,0.000431,0.131161
39202000,0.0324,0.013523,0.002678,0.000431,0.133512
39203000,0.0324,0.013523,0.002678,0.000431,0.613497
39204000,0.0324,0.013523,0.002678,0.000431,0.227417
39205000,0.0324,0.013523,0.002678,0.000431,0.283125
39206000,0.0324,0.013523,0.002678,0.000431,0.270667
39207000,0.0324,0.013523,0.002678,0.000431,0.134452
39208000,0.0324,0.013523,0.002678,0.000431,0.145970
39209000,0.0324,0.013523,0.002678,0.000431,0.105658
39210000,0.0324,0.013523,0.002678,0.000431,0.383024
39211000,0.0324,0.013523,0.002678,0.000431,0.224479
39212000,0.0324,0.013523,0.002678,0.000431,0.038549
39213000,0.0324,0.013523,0.002678,0.000431,0.033496
39214000,0.0324,0.013523,0.002678,0.000431,0.030792
39215000,0.0324,0.013523,0.002678,0.000431,0.023388
39216000,0.0324,0.013523,0.002678,0.000431,0.019275
39217000,0.0324,0.013523,0.002678,0.000431,0.014103
39218000,0.0324,0.013523,0.002678,0.000431,0.014456
39219000,0.0324,0.013523,0.002678,0.000431,0.011518
39220000,0.0324,0.013523,0.002678,0.000431,0.007992
39221000,0.0324,0.013523,0.002678,0.000431,0.007287
39222000,0.0324,0.013523,0.002678,0.000431,0.006934
39223000,0.0324,0.013523,0.002678,0.000431,0.008109
39224000,0.0324,0.013523,0.002678,0.000431,0.007757
39225000,0.0324,0.013523,0.002678,0.000431,0.007992
39226000,0.0324,0.013523,0.002678,0.000431,0.006347
39227000,0.0324,0.013523,0.002678,0.000431,0.006817
39228000,0.0324,0.013523,0.002678,0.000431,0.006582
39229000,0.0324,0.013523,0.002678,0.000431,0.008109
39230000,0.0324,0.013523,0.002678,0.000431,0.005876
39231000,0.0324,0.013523,0.002678,0.000431,0.005406
39232000,0.0324,0.013523,0.002678,0.000431,0.005759
39233000,0.0324,0.013523,0.002678,0.000431,0.005524
39234000,0.0324,0.013523,0.002678,0.000431,0.005641
39235000,0.0324,0.013523,0.002678,0.000431,0.006111
39236000,0.0324,0.013523,0.002678,0.000431,0.005171
39237000,0.0324,0.013523,0.002678,0.000431,0.005876
39238000,0.0324,0.013523,0.002678,0.000431,0.006464
39239000,0.0324,0.013523,0.002678,0.000431,0.005876
39240000,0.0324,0.013523,0.002678,0.000431,0.004113
39241000,0.0324,0.013523,0.002678,0.000431,0.004819
39242000,0.0324,0.013523,0.002678,0.000431,0.005641
39243000,0.0324,0.013523,0.002678,0.000431,0.004231
39244000,0.0324,0.013523,0.002678,0.000431,0.004701
39245000,0.0324,0.013523,0.002678,0.000431,0.004819
39246000,0.0324,0.013523,0.002678,0.000431,0.004936
39247000,0.0324,0.013523,0.002678,0.000431,0.005171
39248000,0.0324,0.013523,0.002678,0.000431,0.004113
39249000,0.0324,0.013523,0.002678,0.000431,0.005406
39250000,0.0324,0.013523,0.002678,0.000431,0.004231
39251000,0.0324,0.013523,0.002678,0.000431,0.005054
39252000,0.0324,0.013523,0.002678,0.000431,0.004936
39253000,0.0324,0.013523,0.002678,0.000431,0.004584
39254000,0.0324,0.013523,0.002678,0.000431,0.005054
39255000,0.0324,0.013523,0.002678,0.000431,0.004349
39256000,0.0324,0.013523,0.002678,0.000431,0.005054
39257000,0.0324,0.013523,0.002678,0.000431,0.004936
39258000,0.0324,0.013523,0.002678,0.000431,0.004819
39259000,0.0324,0.013523,0.002678,0.000431,0.004584
39260000,0.0324,0.013523,0.002678,0.000431,0.004701
39261000,0.0324,0.013523,0.002678,0.000431,0.005289
39262000,0.0324,0.013523,0.002678,0.000431,0.004349
39263000,0.0324,0.013523,0.002678,0.000431,0.004584
39264000,0.0324,0.013523,0.002678,0.000431,0.005289
39265000,0.0324,0.013523,0.002678,0.000431,0.004466
39266000,0.0324,0.013523,0.002678,0.000431,0.005171
39267000,0.0324,0.013523,0.002678,0.000431,0.004584
39268000,0.0324,0.013523,0.002678,0.000431,0.004701
39269000,0.0324,0.013523,0.002678,0.000431,0.004936
39270000,0.0324,0.013523,0.002678,0.000431,0.004584
39271000,0.0324,0.013523,0.002678,0.000431,0.005054
39272000,0.0324,0.013523,0.002678,0.000431,0.004936
39273000,0.0324,0.013523,0.002678,0.000431,0.004466
39274000,0.0324,0.013523,0.002678,0.000431,0.004819
39275000,0.0324,0.013523,0.002678,0.000431,0.004701
39276000,0.0324,0.013523,0.002678,0.000431,0.005406
39277000,0.0324,0.013523,0.002678,0.000431,0.003996
39278000,0.0324,0.013523,0.002678,0.000431,0.005054
39279000,0.0324,0.013523,0.002678,0.000431,0.005171
39280000,0.0324,0.013523,0.002678,0.000431,0.007522
39281000,0.0324,0.013523,0.002678,0.000431,0.003996
39282000,0.0324,0.013523,0.002678,0.000431,0.003878
39283000,0.0324,0.013523,0.002678,0.000431,0.004466
39284000,0.0324,0.013523,0.002678,0.000431,0.003761
39285000,0.0324,0.013523,0.002678,0.000431,0.003996
39286000,0.0324,0.013523,0.002678,0.000431,0.003878
39287000,0.0324,0.013523,0.002678,0.000431,0.003878
39288000,0.0324,0.013523,0.002678,0.000431,0.004231
39289000,0.0324,0.013523,0.002678,0.000431,0.003408
39290000,0.0324,0.013523,0.002678,0.000431,0.004349
39291000,0.0324,0.013523,0.002678,0.000431,0.004113
39292000,0.0324,0.013523,0.002678,0.000431,0.003526
39293000,0.0324,0.013523,0.002678,0.000431,0.004231
39294000,0.0324,0.013523,0.002678,0.000431,0.003761
39295000,0.0324,0.013523,0.002678,0.000431,0.004466
39296000,0.0324,0.013523,0.002678,0.000431,0.003173
39297000,0.0324,0.013523,0.002678,0.000431,0.004231
39298000,0.0324,0.013523,0.002678,0.000431,0.004349
39299000,0.0324,0.013523,0.002678,0.000431,0.003761
39300000,0.0324,0.013523,0.002678,0.000431,0.003878
39301000,0.0324,0.013523,0.002678,0.000431,0.003761
39302000,0.0324,0.013523,0.002678,0.000431,0.004466
39303000,0.0324,0.013523,0.002678,0.000431,0.003643
39304000,0.0324,0.013523,0.002678,0.000431,0.003643
39305000,0.0324,0.013523,0.002678,0.000431,0.004584
39306000,0.0324,0.013523,0.002678,0.000431,0.003526
39307000,0.0324,0.013523,0.002678,0.000431,0.004349
39308000,0.0324,0.013523,0.002678,0.000431,0.003643
39309000,0.0324,0.013523,0.002678,0.000431,0.004113
39310000,0.0324,0.013523,0.002678,0.000431,0.003878
39311000,0.0324,0.013523,0.002678,0.000431,0.003761
39312000,0.0324,0.013523,0.002678,0.000431,0.004349
39313000,0.0324,0.013523,0.002678,0.000431,0.003761
39314000,0.0324,0.013523,0.002678,0.000431,0.004113
39315000,0.0324,0.013523,0.002678,0.000431,0.003643
39316000,0.0324,0.013523,0.002678,0.000431,0.003996
39317000,0.0324,0.013523,0.002678,0.000431,0.004466
39318000,0.0324,0.013523,0.002678,0.000431,0.003526
39319000,0.0324,0.013523,0.002678,0.000431,0.003996
39320000,0.0324,0.013523,0.002678,0.000431,0.003996
39321000,0.0324,0.013523,0.002678,0.000431,0.004113
39322000,0.0324,0.013523,0.002678,0.000431,0.003878
39323000,0.0324,0.013523,0.002678,0.000431,0.003526
39324000,0.0324,0.013523,0.002678,0.000431,0.004584
39325000,0.0324,0.013523,0.002678,0.000431,0.003643
39326000,0.0324,0.013523,0.002678,0.000431,0.003996
39327000,0.0324,0.013523,0.002678,0.000431,0.003878
39328000,0.0324,0.013523,0.002678,0.000431,0.004113
39329000,0.0324,0.013523,0.002678,0.000431,0.003996
39330000,0.0324,0.013523,0.002678,0.000431,0.003526
39331000,0.0324,0.013523,0.002678,0.000431,0.004231
39332000,0.0324,0.013523,0.002678,0.000431,0.004231
39333000,0.0324,0.013523,0.002678,0.000431,0.003643
39334000,0.0324,0.013523,0.002678,0.000431,0.003996
39335000,0.0324,0.013523,0.002678,0.000431,0.003878
39336000,0.0324,0.013523,0.002678,0.000431,0.004466
39337000,0.0324,0.013523,0.002678,0.000431,0.003408
39338000,0.0324,0.013523,0.002678,0.000431,0.003996
39339000,0.0324,0.013523,0.002678,0.000431,0.004231
39340000,0.0324,0.013523,0.002678,0.000431,0.003878
39341000,0.0324,0.013523,0.002678,0.000431,0.004113
39342000,0.0324,0.013523,0.002678,0.000431,0.003643
39343000,0.0324,0.013523,0.002678,0.000431,0.004231
39344000,0.0324,0.013523,0.002678,0.000431,0.003761
39345000,0.0324,0.013523,0.002678,0.000431,0.003996
39346000,0.0324,0.013523,0.002678,0.000431,0.004113
39347000,0.0324,0.013523,0.002678,0.000431,0.003643
39348000,0.0324,0.013523,0.002678,0.000431,0.004231
39349000,0.0324,0.013523,0.002678,0.000431,0.003526
39350000,0.0324,0.013523,0.002678,0.000431,0.004231
39351000,0.0324,0.013523,0.002678,0.000431,0.004231
39352000,0.0324,0.013523,0.002678,0.000431,0.003408
39353000,0.0324,0.013523,0.002678,0.000431,0.004349
39354000,0.0324,0.013523,0.002678,0.000431,0.003761
39355000,0.0324,0.013523,0.002678,0.000431,0.004349
39356000,0.0324,0.013523,0.002678,0.000431,0.003526
39357000,0.0324,0.013523,0.002678,0.000431,0.003878
39358000,0.0324,0.013523,0.002678,0.000431,0.004466
39359000,0.0324,0.013523,0.002678,0.000431,0.004466
39360000,0.0324,0.013523,0.002678,0.000431,0.003056
39361000,0.0324,0.013523,0.002678,0.000431,0.003056
39362000,0.0324,0.013523,0.002678,0.000431,0.003173
39363000,0.0324,0.013523,0.002678,0.000431,0.003526
39364000,0.0324,0.013523,0.002678,0.000431,0.002468
39365000,0.0324,0.013523,0.002678,0.000431,0.003408
39366000,0.0324,0.013523,0.002678,0.000431,0.003173
39367000,0.0324,0.013523,0.002678,0.000431,0.003291
39368000,0.0324,0.013523,0.002678,0.000431,0.002938
39369000,0.0324,0.013523,0.002678,0.000431,0.002821
39370000,0.0324,0.013523,0.002678,0.000431,0.003643
39371000,0.0324,0.013523,0.002678,0.000431,0.002821
39372000,0.0324,0.013523,0.002678,0.000431,0.003291
39373000,0.0324,0.013523,0.002678,0.000431,0.003056
39374000,0.0324,0.013523,0.002678,0.000431,0.003056
39375000,0.0324,0.013523,0.002678,0.000431,0.003291
39376000,0.0324,0.013523,0.002678,0.000431,0.002703
39377000,0.0324,0.013523,0.002678,0.000431,0.003526
39378000,0.0324,0.013523,0.002678,0.000431,0.003056
39379000,0.0324,0.013523,0.002678,0.000431,0.002938
39380000,0.0324,0.013523,0.002678,0.000431,0.003291
39381000,0.0324,0.013523,0.002678,0.000431,0.002821
