Cycle,Area(mm^2),PeakDynamic(W),SubthresholdLeakage(W),GateLeakage(W),RunTimeDynamic(W)
100,0.0324,0.013523,0.002678,0.000431,0.005876
200,0.0324,0.013523,0.002678,0.000431,0.000000
300,0.0324,0.013523,0.002678,0.000431,0.000000
400,0.0324,0.013523,0.002678,0.000431,0.000000
500,0.0324,0.013523,0.002678,0.000431,0.000000
600,0.0324,0.013523,0.002678,0.000431,0.000000
700,0.0324,0.013523,0.002678,0.000431,0.000000
800,0.0324,0.013523,0.002678,0.000431,0.000000
900,0.0324,0.013523,0.002678,0.000431,0.000000
1000,0.0324,0.013523,0.002678,0.000431,0.000000
1100,0.0324,0.013523,0.002678,0.000431,0.000000
1200,0.0324,0.013523,0.002678,0.000431,0.000000
1300,0.0324,0.013523,0.002678,0.000431,0.000000
1400,0.0324,0.013523,0.002678,0.000431,0.000000
1500,0.0324,0.013523,0.002678,0.000431,0.000000
1600,0.0324,0.013523,0.002678,0.000431,0.000000
1700,0.0324,0.013523,0.002678,0.000431,0.000000
1800,0.0324,0.013523,0.002678,0.000431,0.000000
1900,0.0324,0.013523,0.002678,0.000431,0.000000
2000,0.0324,0.013523,0.002678,0.000431,0.000000
2100,0.0324,0.013523,0.002678,0.000431,0.000000
2200,0.0324,0.013523,0.002678,0.000431,0.000000
2300,0.0324,0.013523,0.002678,0.000431,0.000000
2400,0.0324,0.013523,0.002678,0.000431,0.000000
2500,0.0324,0.013523,0.002678,0.000431,0.000000
2600,0.0324,0.013523,0.002678,0.000431,0.000000
2700,0.0324,0.013523,0.002678,0.000431,0.000000
2800,0.0324,0.013523,0.002678,0.000431,0.000000
2900,0.0324,0.013523,0.002678,0.000431,0.000000
3000,0.0324,0.013523,0.002678,0.000431,0.000000
3100,0.0324,0.013523,0.002678,0.000431,0.000000
3200,0.0324,0.013523,0.002678,0.000431,0.000000
3300,0.0324,0.013523,0.002678,0.000431,0.000000
3400,0.0324,0.013523,0.002678,0.000431,0.000000
3500,0.0324,0.013523,0.002678,0.000431,0.000000
3600,0.0324,0.013523,0.002678,0.000431,0.000000
3700,0.0324,0.013523,0.002678,0.000431,0.000000
3800,0.0324,0.013523,0.002678,0.000431,0.000000
3900,0.0324,0.013523,0.002678,0.000431,0.000000
4000,0.0324,0.013523,0.002678,0.000431,0.000000
4100,0.0324,0.013523,0.002678,0.000431,0.000000
4200,0.0324,0.013523,0.002678,0.000431,0.000000
4300,0.0324,0.013523,0.002678,0.000431,0.000000
4400,0.0324,0.013523,0.002678,0.000431,0.000000
4500,0.0324,0.013523,0.002678,0.000431,0.000000
4600,0.0324,0.013523,0.002678,0.000431,0.000000
4700,0.0324,0.013523,0.002678,0.000431,0.000000
4800,0.0324,0.013523,0.002678,0.000431,0.000000
4900,0.0324,0.013523,0.002678,0.000431,0.000000
5000,0.0324,0.013523,0.002678,0.000431,0.000000
5100,0.0324,0.013523,0.002678,0.000431,0.000000
5200,0.0324,0.013523,0.002678,0.000431,0.001175
5300,0.0324,0.013523,0.002678,0.000431,0.000000
5400,0.0324,0.013523,0.002678,0.000431,0.001175
5500,0.0324,0.013523,0.002678,0.000431,0.001175
5600,0.0324,0.013523,0.002678,0.000431,0.000000
5700,0.0324,0.013523,0.002678,0.000431,0.001175
5800,0.0324,0.013523,0.002678,0.000431,0.001175
5900,0.0324,0.013523,0.002678,0.000431,0.000000
6000,0.0324,0.013523,0.002678,0.000431,0.000000
6100,0.0324,0.013523,0.002678,0.000431,0.002351
6200,0.0324,0.013523,0.002678,0.000431,0.000000
6300,0.0324,0.013523,0.002678,0.000431,0.001175
6400,0.0324,0.013523,0.002678,0.000431,0.001175
6500,0.0324,0.013523,0.002678,0.000431,0.000000
6600,0.0324,0.013523,0.002678,0.000431,0.001175
6700,0.0324,0.013523,0.002678,0.000431,0.001175
6800,0.0324,0.013523,0.002678,0.000431,0.000000
6900,0.0324,0.013523,0.002678,0.000431,0.000000
7000,0.0324,0.013523,0.002678,0.000431,0.001175
7100,0.0324,0.013523,0.002678,0.000431,0.000000
7200,0.0324,0.013523,0.002678,0.000431,0.000000
7300,0.0324,0.013523,0.002678,0.000431,0.000000
7400,0.0324,0.013523,0.002678,0.000431,0.000000
7500,0.0324,0.013523,0.002678,0.000431,0.000000
7600,0.0324,0.013523,0.002678,0.000431,0.000000
7700,0.0324,0.013523,0.002678,0.000431,0.000000
7800,0.0324,0.013523,0.002678,0.000431,0.000000
7900,0.0324,0.013523,0.002678,0.000431,0.000000
8000,0.0324,0.013523,0.002678,0.000431,0.000000
8100,0.0324,0.013523,0.002678,0.000431,0.000000
8200,0.0324,0.013523,0.002678,0.000431,0.000000
8300,0.0324,0.013523,0.002678,0.000431,0.000000
8400,0.0324,0.013523,0.002678,0.000431,0.000000
8500,0.0324,0.013523,0.002678,0.000431,0.000000
8600,0.0324,0.013523,0.002678,0.000431,0.000000
8700,0.0324,0.013523,0.002678,0.000431,0.001175
8800,0.0324,0.013523,0.002678,0.000431,0.000000
8900,0.0324,0.013523,0.002678,0.000431,0.001175
9000,0.0324,0.013523,0.002678,0.000431,0.001175
9100,0.0324,0.013523,0.002678,0.000431,0.000000
9200,0.0324,0.013523,0.002678,0.000431,0.002351
9300,0.0324,0.013523,0.002678,0.000431,0.000000
9400,0.0324,0.013523,0.002678,0.000431,0.001175
9500,0.0324,0.013523,0.002678,0.000431,0.001175
9600,0.0324,0.013523,0.002678,0.000431,0.000000
9700,0.0324,0.013523,0.002678,0.000431,0.000000
9800,0.0324,0.013523,0.002678,0.000431,0.001175
9900,0.0324,0.013523,0.002678,0.000431,0.000000
10000,0.0324,0.013523,0.002678,0.000431,0.000000
10100,0.0324,0.013523,0.002678,0.000431,0.000000
10200,0.0324,0.013523,0.002678,0.000431,0.000000
10300,0.0324,0.013523,0.002678,0.000431,0.000000
10400,0.0324,0.013523,0.002678,0.000431,0.000000
10500,0.0324,0.013523,0.002678,0.000431,0.000000
10600,0.0324,0.013523,0.002678,0.000431,0.000000
10700,0.0324,0.013523,0.002678,0.000431,0.000000
10800,0.0324,0.013523,0.002678,0.000431,0.000000
10900,0.0324,0.013523,0.002678,0.000431,0.000000
11000,0.0324,0.013523,0.002678,0.000431,0.000000
11100,0.0324,0.013523,0.002678,0.000431,0.000000
11200,0.0324,0.013523,0.002678,0.000431,0.000000
11300,0.0324,0.013523,0.002678,0.000431,0.000000
11400,0.0324,0.013523,0.002678,0.000431,0.000000
11500,0.0324,0.013523,0.002678,0.000431,0.000000
11600,0.0324,0.013523,0.002678,0.000431,0.001175
11700,0.0324,0.013523,0.002678,0.000431,0.000000
11800,0.0324,0.013523,0.002678,0.000431,0.001175
11900,0.0324,0.013523,0.002678,0.000431,0.001175
12000,0.0324,0.013523,0.002678,0.000431,0.000000
12100,0.0324,0.013523,0.002678,0.000431,0.002351
12200,0.0324,0.013523,0.002678,0.000431,0.000000
12300,0.0324,0.013523,0.002678,0.000431,0.001175
12400,0.0324,0.013523,0.002678,0.000431,0.001175
12500,0.0324,0.013523,0.002678,0.000431,0.000000
12600,0.0324,0.013523,0.002678,0.000431,0.000000
12700,0.0324,0.013523,0.002678,0.000431,0.001175
12800,0.0324,0.013523,0.002678,0.000431,0.000000
12900,0.0324,0.013523,0.002678,0.000431,0.000000
13000,0.0324,0.013523,0.002678,0.000431,0.000000
13100,0.0324,0.013523,0.002678,0.000431,0.000000
13200,0.0324,0.013523,0.002678,0.000431,0.000000
13300,0.0324,0.013523,0.002678,0.000431,0.000000
13400,0.0324,0.013523,0.002678,0.000431,0.000000
13500,0.0324,0.013523,0.002678,0.000431,0.000000
13600,0.0324,0.013523,0.002678,0.000431,0.000000
13700,0.0324,0.013523,0.002678,0.000431,0.000000
13800,0.0324,0.013523,0.002678,0.000431,0.000000
13900,0.0324,0.013523,0.002678,0.000431,0.000000
14000,0.0324,0.013523,0.002678,0.000431,0.000000
14100,0.0324,0.013523,0.002678,0.000431,0.000000
14200,0.0324,0.013523,0.002678,0.000431,0.000000
14300,0.0324,0.013523,0.002678,0.000431,0.000000
14400,0.0324,0.013523,0.002678,0.000431,0.000000
14500,0.0324,0.013523,0.002678,0.000431,0.001175
14600,0.0324,0.013523,0.002678,0.000431,0.000000
14700,0.0324,0.013523,0.002678,0.000431,0.002351
14800,0.0324,0.013523,0.002678,0.000431,0.000000
14900,0.0324,0.013523,0.002678,0.000431,0.001175
15000,0.0324,0.013523,0.002678,0.000431,0.001175
15100,0.0324,0.013523,0.002678,0.000431,0.000000
15200,0.0324,0.013523,0.002678,0.000431,0.001175
15300,0.0324,0.013523,0.002678,0.000431,0.001175
15400,0.0324,0.013523,0.002678,0.000431,0.000000
15500,0.0324,0.013523,0.002678,0.000431,0.000000
15600,0.0324,0.013523,0.002678,0.000431,0.001175
15700,0.0324,0.013523,0.002678,0.000431,0.000000
15800,0.0324,0.013523,0.002678,0.000431,0.000000
15900,0.0324,0.013523,0.002678,0.000431,0.000000
16000,0.0324,0.013523,0.002678,0.000431,0.000000
16100,0.0324,0.013523,0.002678,0.000431,0.000000
16200,0.0324,0.013523,0.002678,0.000431,0.000000
16300,0.0324,0.013523,0.002678,0.000431,0.000000
16400,0.0324,0.013523,0.002678,0.000431,0.000000
16500,0.0324,0.013523,0.002678,0.000431,0.000000
16600,0.0324,0.013523,0.002678,0.000431,0.000000
16700,0.0324,0.013523,0.002678,0.000431,0.000000
16800,0.0324,0.013523,0.002678,0.000431,0.000000
16900,0.0324,0.013523,0.002678,0.000431,0.000000
17000,0.0324,0.013523,0.002678,0.000431,0.000000
17100,0.0324,0.013523,0.002678,0.000431,0.000000
17200,0.0324,0.013523,0.002678,0.000431,0.000000
17300,0.0324,0.013523,0.002678,0.000431,0.001175
17400,0.0324,0.013523,0.002678,0.000431,0.000000
17500,0.0324,0.013523,0.002678,0.000431,0.001175
17600,0.0324,0.013523,0.002678,0.000431,0.001175
17700,0.0324,0.013523,0.002678,0.000431,0.000000
17800,0.0324,0.013523,0.002678,0.000431,0.001175
17900,0.0324,0.013523,0.002678,0.000431,0.001175
18000,0.0324,0.013523,0.002678,0.000431,0.000000
18100,0.0324,0.013523,0.002678,0.000431,0.002351
18200,0.0324,0.013523,0.002678,0.000431,0.000000
18300,0.0324,0.013523,0.002678,0.000431,0.000000
18400,0.0324,0.013523,0.002678,0.000431,0.001175
18500,0.0324,0.013523,0.002678,0.000431,0.000000
18600,0.0324,0.013523,0.002678,0.000431,0.000000
18700,0.0324,0.013523,0.002678,0.000431,0.000000
18800,0.0324,0.013523,0.002678,0.000431,0.000000
18900,0.0324,0.013523,0.002678,0.000431,0.000000
19000,0.0324,0.013523,0.002678,0.000431,0.000000
19100,0.0324,0.013523,0.002678,0.000431,0.000000
19200,0.0324,0.013523,0.002678,0.000431,0.000000
19300,0.0324,0.013523,0.002678,0.000431,0.000000
19400,0.0324,0.013523,0.002678,0.000431,0.000000
19500,0.0324,0.013523,0.002678,0.000431,0.000000
19600,0.0324,0.013523,0.002678,0.000431,0.000000
19700,0.0324,0.013523,0.002678,0.000431,0.000000
19800,0.0324,0.013523,0.002678,0.000431,0.000000
19900,0.0324,0.013523,0.002678,0.000431,0.000000
20000,0.0324,0.013523,0.002678,0.000431,0.000000
20100,0.0324,0.013523,0.002678,0.000431,0.000000
20200,0.0324,0.013523,0.002678,0.000431,0.001175
20300,0.0324,0.013523,0.002678,0.000431,0.000000
20400,0.0324,0.013523,0.002678,0.000431,0.001175
20500,0.0324,0.013523,0.002678,0.000431,0.001175
20600,0.0324,0.013523,0.002678,0.000431,0.000000
20700,0.0324,0.013523,0.002678,0.000431,0.001175
20800,0.0324,0.013523,0.002678,0.000431,0.001175
20900,0.0324,0.013523,0.002678,0.000431,0.000000
21000,0.0324,0.013523,0.002678,0.000431,0.002351
21100,0.0324,0.013523,0.002678,0.000431,0.000000
21200,0.0324,0.013523,0.002678,0.000431,0.000000
21300,0.0324,0.013523,0.002678,0.000431,0.001175
21400,0.0324,0.013523,0.002678,0.000431,0.000000
21500,0.0324,0.013523,0.002678,0.000431,0.000000
21600,0.0324,0.013523,0.002678,0.000431,0.000000
21700,0.0324,0.013523,0.002678,0.000431,0.000000
21800,0.0324,0.013523,0.002678,0.000431,0.000000
21900,0.0324,0.013523,0.002678,0.000431,0.000000
22000,0.0324,0.013523,0.002678,0.000431,0.000000
22100,0.0324,0.013523,0.002678,0.000431,0.000000
22200,0.0324,0.013523,0.002678,0.000431,0.000000
22300,0.0324,0.013523,0.002678,0.000431,0.000000
22400,0.0324,0.013523,0.002678,0.000431,0.000000
22500,0.0324,0.013523,0.002678,0.000431,0.000000
22600,0.0324,0.013523,0.002678,0.000431,0.000000
22700,0.0324,0.013523,0.002678,0.000431,0.000000
22800,0.0324,0.013523,0.002678,0.000431,0.000000
22900,0.0324,0.013523,0.002678,0.000431,0.000000
23000,0.0324,0.013523,0.002678,0.000431,0.000000
23100,0.0324,0.013523,0.002678,0.000431,0.001175
23200,0.0324,0.013523,0.002678,0.000431,0.000000
23300,0.0324,0.013523,0.002678,0.000431,0.001175
23400,0.0324,0.013523,0.002678,0.000431,0.001175
23500,0.0324,0.013523,0.002678,0.000431,0.000000
23600,0.0324,0.013523,0.002678,0.000431,0.001175
23700,0.0324,0.013523,0.002678,0.000431,0.001175
23800,0.0324,0.013523,0.002678,0.000431,0.000000
23900,0.0324,0.013523,0.002678,0.000431,0.002351
24000,0.0324,0.013523,0.002678,0.000431,0.000000
24100,0.0324,0.013523,0.002678,0.000431,0.000000
24200,0.0324,0.013523,0.002678,0.000431,0.001175
24300,0.0324,0.013523,0.002678,0.000431,0.000000
24400,0.0324,0.013523,0.002678,0.000431,0.000000
24500,0.0324,0.013523,0.002678,0.000431,0.000000
24600,0.0324,0.013523,0.002678,0.000431,0.000000
24700,0.0324,0.013523,0.002678,0.000431,0.000000
24800,0.0324,0.013523,0.002678,0.000431,0.000000
24900,0.0324,0.013523,0.002678,0.000431,0.000000
25000,0.0324,0.013523,0.002678,0.000431,0.000000
25100,0.0324,0.013523,0.002678,0.000431,0.000000
25200,0.0324,0.013523,0.002678,0.000431,0.000000
25300,0.0324,0.013523,0.002678,0.000431,0.000000
25400,0.0324,0.013523,0.002678,0.000431,0.000000
25500,0.0324,0.013523,0.002678,0.000431,0.000000
25600,0.0324,0.013523,0.002678,0.000431,0.000000
25700,0.0324,0.013523,0.002678,0.000431,0.000000
25800,0.0324,0.013523,0.002678,0.000431,0.000000
25900,0.0324,0.013523,0.002678,0.000431,0.000000
26000,0.0324,0.013523,0.002678,0.000431,0.001175
26100,0.0324,0.013523,0.002678,0.000431,0.000000
26200,0.0324,0.013523,0.002678,0.000431,0.001175
26300,0.0324,0.013523,0.002678,0.000431,0.001175
26400,0.0324,0.013523,0.002678,0.000431,0.000000
26500,0.0324,0.013523,0.002678,0.000431,0.001175
26600,0.0324,0.013523,0.002678,0.000431,0.001175
26700,0.0324,0.013523,0.002678,0.000431,0.000000
26800,0.0324,0.013523,0.002678,0.000431,0.002351
26900,0.0324,0.013523,0.002678,0.000431,0.000000
27000,0.0324,0.013523,0.002678,0.000431,0.000000
27100,0.0324,0.013523,0.002678,0.000431,0.001175
27200,0.0324,0.013523,0.002678,0.000431,0.000000
27300,0.0324,0.013523,0.002678,0.000431,0.000000
27400,0.0324,0.013523,0.002678,0.000431,0.000000
27500,0.0324,0.013523,0.002678,0.000431,0.000000
27600,0.0324,0.013523,0.002678,0.000431,0.000000
27700,0.0324,0.013523,0.002678,0.000431,0.000000
27800,0.0324,0.013523,0.002678,0.000431,0.000000
27900,0.0324,0.013523,0.002678,0.000431,0.000000
28000,0.0324,0.013523,0.002678,0.000431,0.000000
28100,0.0324,0.013523,0.002678,0.000431,0.000000
28200,0.0324,0.013523,0.002678,0.000431,0.000000
28300,0.0324,0.013523,0.002678,0.000431,0.000000
28400,0.0324,0.013523,0.002678,0.000431,0.000000
28500,0.0324,0.013523,0.002678,0.000431,0.000000
28600,0.0324,0.013523,0.002678,0.000431,0.000000
28700,0.0324,0.013523,0.002678,0.000431,0.000000
28800,0.0324,0.013523,0.002678,0.000431,0.000000
28900,0.0324,0.013523,0.002678,0.000431,0.001175
29000,0.0324,0.013523,0.002678,0.000431,0.000000
29100,0.0324,0.013523,0.002678,0.000431,0.001175
29200,0.0324,0.013523,0.002678,0.000431,0.001175
29300,0.0324,0.013523,0.002678,0.000431,0.000000
29400,0.0324,0.013523,0.002678,0.000431,0.002351
29500,0.0324,0.013523,0.002678,0.000431,0.000000
29600,0.0324,0.013523,0.002678,0.000431,0.001175
29700,0.0324,0.013523,0.002678,0.000431,0.001175
29800,0.0324,0.013523,0.002678,0.000431,0.000000
29900,0.0324,0.013523,0.002678,0.000431,0.000000
30000,0.0324,0.013523,0.002678,0.000431,0.001175
30100,0.0324,0.013523,0.002678,0.000431,0.000000
30200,0.0324,0.013523,0.002678,0.000431,0.000000
30300,0.0324,0.013523,0.002678,0.000431,0.000000
30400,0.0324,0.013523,0.002678,0.000431,0.000000
30500,0.0324,0.013523,0.002678,0.000431,0.000000
30600,0.0324,0.013523,0.002678,0.000431,0.000000
30700,0.0324,0.013523,0.002678,0.000431,0.000000
30800,0.0324,0.013523,0.002678,0.000431,0.000000
30900,0.0324,0.013523,0.002678,0.000431,0.000000
31000,0.0324,0.013523,0.002678,0.000431,0.000000
31100,0.0324,0.013523,0.002678,0.000431,0.000000
31200,0.0324,0.013523,0.002678,0.000431,0.000000
31300,0.0324,0.013523,0.002678,0.000431,0.000000
31400,0.0324,0.013523,0.002678,0.000431,0.000000
31500,0.0324,0.013523,0.002678,0.000431,0.000000
31600,0.0324,0.013523,0.002678,0.000431,0.000000
31700,0.0324,0.013523,0.002678,0.000431,0.000000
31800,0.0324,0.013523,0.002678,0.000431,0.001175
31900,0.0324,0.013523,0.002678,0.000431,0.000000
32000,0.0324,0.013523,0.002678,0.000431,0.001175
32100,0.0324,0.013523,0.002678,0.000431,0.001175
32200,0.0324,0.013523,0.002678,0.000431,0.000000
32300,0.0324,0.013523,0.002678,0.000431,0.002351
32400,0.0324,0.013523,0.002678,0.000431,0.000000
32500,0.0324,0.013523,0.002678,0.000431,0.001175
32600,0.0324,0.013523,0.002678,0.000431,0.001175
32700,0.0324,0.013523,0.002678,0.000431,0.000000
32800,0.0324,0.013523,0.002678,0.000431,0.000000
32900,0.0324,0.013523,0.002678,0.000431,0.001175
33000,0.0324,0.013523,0.002678,0.000431,0.000000
33100,0.0324,0.013523,0.002678,0.000431,0.000000
33200,0.0324,0.013523,0.002678,0.000431,0.000000
33300,0.0324,0.013523,0.002678,0.000431,0.000000
33400,0.0324,0.013523,0.002678,0.000431,0.000000
33500,0.0324,0.013523,0.002678,0.000431,0.000000
33600,0.0324,0.013523,0.002678,0.000431,0.000000
33700,0.0324,0.013523,0.002678,0.000431,0.000000
33800,0.0324,0.013523,0.002678,0.000431,0.000000
33900,0.0324,0.013523,0.002678,0.000431,0.000000
34000,0.0324,0.013523,0.002678,0.000431,0.000000
34100,0.0324,0.013523,0.002678,0.000431,0.000000
34200,0.0324,0.013523,0.002678,0.000431,0.000000
34300,0.0324,0.013523,0.002678,0.000431,0.000000
34400,0.0324,0.013523,0.002678,0.000431,0.000000
34500,0.0324,0.013523,0.002678,0.000431,0.000000
34600,0.0324,0.013523,0.002678,0.000431,0.000000
34700,0.0324,0.013523,0.002678,0.000431,0.001175
34800,0.0324,0.013523,0.002678,0.000431,0.000000
34900,0.0324,0.013523,0.002678,0.000431,0.001175
35000,0.0324,0.013523,0.002678,0.000431,0.001175
35100,0.0324,0.013523,0.002678,0.000431,0.000000
35200,0.0324,0.013523,0.002678,0.000431,0.002351
35300,0.0324,0.013523,0.002678,0.000431,0.000000
35400,0.0324,0.013523,0.002678,0.000431,0.001175
35500,0.0324,0.013523,0.002678,0.000431,0.001175
35600,0.0324,0.013523,0.002678,0.000431,0.000000
35700,0.0324,0.013523,0.002678,0.000431,0.000000
35800,0.0324,0.013523,0.002678,0.000431,0.001175
35900,0.0324,0.013523,0.002678,0.000431,0.000000
36000,0.0324,0.013523,0.002678,0.000431,0.000000
36100,0.0324,0.013523,0.002678,0.000431,0.000000
36200,0.0324,0.013523,0.002678,0.000431,0.000000
36300,0.0324,0.013523,0.002678,0.000431,0.000000
36400,0.0324,0.013523,0.002678,0.000431,0.000000
36500,0.0324,0.013523,0.002678,0.000431,0.000000
36600,0.0324,0.013523,0.002678,0.000431,0.000000
36700,0.0324,0.013523,0.002678,0.000431,0.000000
36800,0.0324,0.013523,0.002678,0.000431,0.000000
36900,0.0324,0.013523,0.002678,0.000431,0.000000
37000,0.0324,0.013523,0.002678,0.000431,0.000000
37100,0.0324,0.013523,0.002678,0.000431,0.000000
37200,0.0324,0.013523,0.002678,0.000431,0.000000
37300,0.0324,0.013523,0.002678,0.000431,0.000000
37400,0.0324,0.013523,0.002678,0.000431,0.000000
37500,0.0324,0.013523,0.002678,0.000431,0.000000
37600,0.0324,0.013523,0.002678,0.000431,0.001175
37700,0.0324,0.013523,0.002678,0.000431,0.000000
37800,0.0324,0.013523,0.002678,0.000431,0.002351
37900,0.0324,0.013523,0.002678,0.000431,0.000000
38000,0.0324,0.013523,0.002678,0.000431,0.001175
38100,0.0324,0.013523,0.002678,0.000431,0.001175
38200,0.0324,0.013523,0.002678,0.000431,0.000000
38300,0.0324,0.013523,0.002678,0.000431,0.002351
38400,0.0324,0.013523,0.002678,0.000431,0.000000
38500,0.0324,0.013523,0.002678,0.000431,0.000000
38600,0.0324,0.013523,0.002678,0.000431,0.000000
38700,0.0324,0.013523,0.002678,0.000431,0.001175
38800,0.0324,0.013523,0.002678,0.000431,0.000000
38900,0.0324,0.013523,0.002678,0.000431,0.000000
39000,0.0324,0.013523,0.002678,0.000431,0.000000
39100,0.0324,0.013523,0.002678,0.000431,0.000000
39200,0.0324,0.013523,0.002678,0.000431,0.000000
39300,0.0324,0.013523,0.002678,0.000431,0.000000
39400,0.0324,0.013523,0.002678,0.000431,0.000000
39500,0.0324,0.013523,0.002678,0.000431,0.000000
39600,0.0324,0.013523,0.002678,0.000431,0.000000
39700,0.0324,0.013523,0.002678,0.000431,0.000000
39800,0.0324,0.013523,0.002678,0.000431,0.000000
39900,0.0324,0.013523,0.002678,0.000431,0.000000
40000,0.0324,0.013523,0.002678,0.000431,0.000000
40100,0.0324,0.013523,0.002678,0.000431,0.000000
40200,0.0324,0.013523,0.002678,0.000431,0.000000
40300,0.0324,0.013523,0.002678,0.000431,0.000000
40400,0.0324,0.013523,0.002678,0.000431,0.001175
40500,0.0324,0.013523,0.002678,0.000431,0.000000
40600,0.0324,0.013523,0.002678,0.000431,0.001175
40700,0.0324,0.013523,0.002678,0.000431,0.001175
40800,0.0324,0.013523,0.002678,0.000431,0.000000
