Cycle,Area(mm^2),PeakDynamic(W),SubthresholdLeakage(W),GateLeakage(W),RunTimeDynamic(W)
3000000,0.0324,0.013523,0.002678,0.000431,0.007757
3001000,0.0324,0.013523,0.002678,0.000431,0.006582
3002000,0.0324,0.013523,0.002678,0.000431,0.007169
3003000,0.0324,0.013523,0.002678,0.000431,0.007757
3004000,0.0324,0.013523,0.002678,0.000431,0.006934
3005000,0.0324,0.013523,0.002678,0.000431,0.006817
3006000,0.0324,0.013523,0.002678,0.000431,0.007874
3007000,0.0324,0.013523,0.002678,0.000431,0.007404
3008000,0.0324,0.013523,0.002678,0.000431,0.006699
3009000,0.0324,0.013523,0.002678,0.000431,0.007169
3010000,0.0324,0.013523,0.002678,0.000431,0.006934
3011000,0.0324,0.013523,0.002678,0.000431,0.006347
3012000,0.0324,0.013523,0.002678,0.000431,0.005524
3013000,0.0324,0.013523,0.002678,0.000431,0.007992
3014000,0.0324,0.013523,0.002678,0.000431,0.005641
3015000,0.0324,0.013523,0.002678,0.000431,0.005524
3016000,0.0324,0.013523,0.002678,0.000431,0.007287
3017000,0.0324,0.013523,0.002678,0.000431,0.006229
3018000,0.0324,0.013523,0.002678,0.000431,0.005641
3019000,0.0324,0.013523,0.002678,0.000431,0.007639
3020000,0.0324,0.013523,0.002678,0.000431,0.006229
3021000,0.0324,0.013523,0.002678,0.000431,0.005994
3022000,0.0324,0.013523,0.002678,0.000431,0.006464
3023000,0.0324,0.013523,0.002678,0.000431,0.006817
3024000,0.0324,0.013523,0.002678,0.000431,0.005876
3025000,0.0324,0.013523,0.002678,0.000431,0.006582
3026000,0.0324,0.013523,0.002678,0.000431,0.007052
3027000,0.0324,0.013523,0.002678,0.000431,0.005994
3028000,0.0324,0.013523,0.002678,0.000431,0.006699
3029000,0.0324,0.013523,0.002678,0.000431,0.006582
3030000,0.0324,0.013523,0.002678,0.000431,0.006111
3031000,0.0324,0.013523,0.002678,0.000431,0.006699
3032000,0.0324,0.013523,0.002678,0.000431,0.006817
3033000,0.0324,0.013523,0.002678,0.000431,0.006464
3034000,0.0324,0.013523,0.002678,0.000431,0.006229
3035000,0.0324,0.013523,0.002678,0.000431,0.005876
3036000,0.0324,0.013523,0.002678,0.000431,0.006582
3037000,0.0324,0.013523,0.002678,0.000431,0.005759
3038000,0.0324,0.013523,0.002678,0.000431,0.006464
3039000,0.0324,0.013523,0.002678,0.000431,0.006817
3040000,0.0324,0.013523,0.002678,0.000431,0.006582
3041000,0.0324,0.013523,0.002678,0.000431,0.006464
3042000,0.0324,0.013523,0.002678,0.000431,0.006229
3043000,0.0324,0.013523,0.002678,0.000431,0.006699
3044000,0.0324,0.013523,0.002678,0.000431,0.006699
3045000,0.0324,0.013523,0.002678,0.000431,0.005994
3046000,0.0324,0.013523,0.002678,0.000431,0.007639
3047000,0.0324,0.013523,0.002678,0.000431,0.005876
3048000,0.0324,0.013523,0.002678,0.000431,0.005876
3049000,0.0324,0.013523,0.002678,0.000431,0.007052
3050000,0.0324,0.013523,0.002678,0.000431,0.005876
3051000,0.0324,0.013523,0.002678,0.000431,0.005641
3052000,0.0324,0.013523,0.002678,0.000431,0.006699
3053000,0.0324,0.013523,0.002678,0.000431,0.005759
3054000,0.0324,0.013523,0.002678,0.000431,0.005759
3055000,0.0324,0.013523,0.002678,0.000431,0.006582
3056000,0.0324,0.013523,0.002678,0.000431,0.006699
3057000,0.0324,0.013523,0.002678,0.000431,0.005876
3058000,0.0324,0.013523,0.002678,0.000431,0.006111
3059000,0.0324,0.013523,0.002678,0.000431,0.007287
3060000,0.0324,0.013523,0.002678,0.000431,0.005641
3061000,0.0324,0.013523,0.002678,0.000431,0.005876
3062000,0.0324,0.013523,0.002678,0.000431,0.007052
3063000,0.0324,0.013523,0.002678,0.000431,0.005876
3064000,0.0324,0.013523,0.002678,0.000431,0.005876
3065000,0.0324,0.013523,0.002678,0.000431,0.007052
3066000,0.0324,0.013523,0.002678,0.000431,0.005054
3067000,0.0324,0.013523,0.002678,0.000431,0.004936
3068000,0.0324,0.013523,0.002678,0.000431,0.005171
3069000,0.0324,0.013523,0.002678,0.000431,0.005994
3070000,0.0324,0.013523,0.002678,0.000431,0.004819
3071000,0.0324,0.013523,0.002678,0.000431,0.005171
3072000,0.0324,0.013523,0.002678,0.000431,0.006111
3073000,0.0324,0.013523,0.002678,0.000431,0.004466
3074000,0.0324,0.013523,0.002678,0.000431,0.005524
3075000,0.0324,0.013523,0.002678,0.000431,0.005524
3076000,0.0324,0.013523,0.002678,0.000431,0.005289
3077000,0.0324,0.013523,0.002678,0.000431,0.005054
3078000,0.0324,0.013523,0.002678,0.000431,0.005876
3079000,0.0324,0.013523,0.002678,0.000431,0.005406
3080000,0.0324,0.013523,0.002678,0.000431,0.004819
3081000,0.0324,0.013523,0.002678,0.000431,0.005876
3082000,0.0324,0.013523,0.002678,0.000431,0.005641
3083000,0.0324,0.013523,0.002678,0.000431,0.004701
3084000,0.0324,0.013523,0.002678,0.000431,0.005524
3085000,0.0324,0.013523,0.002678,0.000431,0.005524
3086000,0.0324,0.013523,0.002678,0.000431,0.005171
3087000,0.0324,0.013523,0.002678,0.000431,0.004701
3088000,0.0324,0.013523,0.002678,0.000431,0.005759
3089000,0.0324,0.013523,0.002678,0.000431,0.005524
3090000,0.0324,0.013523,0.002678,0.000431,0.004466
3091000,0.0324,0.013523,0.002678,0.000431,0.005054
3092000,0.0324,0.013523,0.002678,0.000431,0.005406
3093000,0.0324,0.013523,0.002678,0.000431,0.005524
3094000,0.0324,0.013523,0.002678,0.000431,0.005054
3095000,0.0324,0.013523,0.002678,0.000431,0.005171
3096000,0.0324,0.013523,0.002678,0.000431,0.005641
3097000,0.0324,0.013523,0.002678,0.000431,0.005054
3098000,0.0324,0.013523,0.002678,0.000431,0.005759
3099000,0.0324,0.013523,0.002678,0.000431,0.005054
3100000,0.0324,0.013523,0.002678,0.000431,0.005524
3101000,0.0324,0.013523,0.002678,0.000431,0.005054
3102000,0.0324,0.013523,0.002678,0.000431,0.005759
3103000,0.0324,0.013523,0.002678,0.000431,0.005406
3104000,0.0324,0.013523,0.002678,0.000431,0.005406
3105000,0.0324,0.013523,0.002678,0.000431,0.005406
3106000,0.0324,0.013523,0.002678,0.000431,0.005054
3107000,0.0324,0.013523,0.002678,0.000431,0.005876
3108000,0.0324,0.013523,0.002678,0.000431,0.004936
3109000,0.0324,0.013523,0.002678,0.000431,0.005641
3110000,0.0324,0.013523,0.002678,0.000431,0.005171
3111000,0.0324,0.013523,0.002678,0.000431,0.005524
3112000,0.0324,0.013523,0.002678,0.000431,0.005641
3113000,0.0324,0.013523,0.002678,0.000431,0.005171
3114000,0.0324,0.013523,0.002678,0.000431,0.005524
3115000,0.0324,0.013523,0.002678,0.000431,0.005289
3116000,0.0324,0.013523,0.002678,0.000431,0.005524
3117000,0.0324,0.013523,0.002678,0.000431,0.005406
3118000,0.0324,0.013523,0.002678,0.000431,0.005171
3119000,0.0324,0.013523,0.002678,0.000431,0.005641
3120000,0.0324,0.013523,0.002678,0.000431,0.005289
3121000,0.0324,0.013523,0.002678,0.000431,0.005289
3122000,0.0324,0.013523,0.002678,0.000431,0.005641
3123000,0.0324,0.013523,0.002678,0.000431,0.005054
3124000,0.0324,0.013523,0.002678,0.000431,0.005524
3125000,0.0324,0.013523,0.002678,0.000431,0.005641
3126000,0.0324,0.013523,0.002678,0.000431,0.005524
3127000,0.0324,0.013523,0.002678,0.000431,0.004819
3128000,0.0324,0.013523,0.002678,0.000431,0.005171
3129000,0.0324,0.013523,0.002678,0.000431,0.005524
3130000,0.0324,0.013523,0.002678,0.000431,0.005406
3131000,0.0324,0.013523,0.002678,0.000431,0.005406
3132000,0.0324,0.013523,0.002678,0.000431,0.005289
3133000,0.0324,0.013523,0.002678,0.000431,0.005171
3134000,0.0324,0.013523,0.002678,0.000431,0.005054
3135000,0.0324,0.013523,0.002678,0.000431,0.005406
3136000,0.0324,0.013523,0.002678,0.000431,0.005171
3137000,0.0324,0.013523,0.002678,0.000431,0.005289
3138000,0.0324,0.013523,0.002678,0.000431,0.005289
3139000,0.0324,0.013523,0.002678,0.000431,0.005171
3140000,0.0324,0.013523,0.002678,0.000431,0.005641
3141000,0.0324,0.013523,0.002678,0.000431,0.005524
3142000,0.0324,0.013523,0.002678,0.000431,0.005054
3143000,0.0324,0.013523,0.002678,0.000431,0.005171
3144000,0.0324,0.013523,0.002678,0.000431,0.005406
3145000,0.0324,0.013523,0.002678,0.000431,0.004349
3146000,0.0324,0.013523,0.002678,0.000431,0.005641
3147000,0.0324,0.013523,0.002678,0.000431,0.005406
3148000,0.0324,0.013523,0.002678,0.000431,0.005289
3149000,0.0324,0.013523,0.002678,0.000431,0.005171
3150000,0.0324,0.013523,0.002678,0.000431,0.005759
3151000,0.0324,0.013523,0.002678,0.000431,0.005289
3152000,0.0324,0.013523,0.002678,0.000431,0.005406
3153000,0.0324,0.013523,0.002678,0.000431,0.005524
3154000,0.0324,0.013523,0.002678,0.000431,0.005759
3155000,0.0324,0.013523,0.002678,0.000431,0.005289
3156000,0.0324,0.013523,0.002678,0.000431,0.005171
3157000,0.0324,0.013523,0.002678,0.000431,0.005641
3158000,0.0324,0.013523,0.002678,0.000431,0.004819
3159000,0.0324,0.013523,0.002678,0.000431,0.005524
3160000,0.0324,0.013523,0.002678,0.000431,0.005876
3161000,0.0324,0.013523,0.002678,0.000431,0.004936
3162000,0.0324,0.013523,0.002678,0.000431,0.005289
3163000,0.0324,0.013523,0.002678,0.000431,0.005289
3164000,0.0324,0.013523,0.002678,0.000431,0.005406
3165000,0.0324,0.013523,0.002678,0.000431,0.004819
3166000,0.0324,0.013523,0.002678,0.000431,0.005876
3167000,0.0324,0.013523,0.002678,0.000431,0.005406
3168000,0.0324,0.013523,0.002678,0.000431,0.005171
3169000,0.0324,0.013523,0.002678,0.000431,0.005524
3170000,0.0324,0.013523,0.002678,0.000431,0.005289
3171000,0.0324,0.013523,0.002678,0.000431,0.005289
3172000,0.0324,0.013523,0.002678,0.000431,0.005524
3173000,0.0324,0.013523,0.002678,0.000431,0.005524
3174000,0.0324,0.013523,0.002678,0.000431,0.005876
3175000,0.0324,0.013523,0.002678,0.000431,0.005171
3176000,0.0324,0.013523,0.002678,0.000431,0.004701
3177000,0.0324,0.013523,0.002678,0.000431,0.004349
3178000,0.0324,0.013523,0.002678,0.000431,0.004819
3179000,0.0324,0.013523,0.002678,0.000431,0.004701
3180000,0.0324,0.013523,0.002678,0.000431,0.004113
3181000,0.0324,0.013523,0.002678,0.000431,0.004701
3182000,0.0324,0.013523,0.002678,0.000431,0.004701
3183000,0.0324,0.013523,0.002678,0.000431,0.004349
3184000,0.0324,0.013523,0.002678,0.000431,0.004819
3185000,0.0324,0.013523,0.002678,0.000431,0.004584
3186000,0.0324,0.013523,0.002678,0.000431,0.004231
3187000,0.0324,0.013523,0.002678,0.000431,0.004701
3188000,0.0324,0.013523,0.002678,0.000431,0.005171
3189000,0.0324,0.013523,0.002678,0.000431,0.004113
3190000,0.0324,0.013523,0.002678,0.000431,0.003643
3191000,0.0324,0.013523,0.002678,0.000431,0.004349
3192000,0.0324,0.013523,0.002678,0.000431,0.003996
3193000,0.0324,0.013523,0.002678,0.000431,0.003761
3194000,0.0324,0.013523,0.002678,0.000431,0.003643
3195000,0.0324,0.013523,0.002678,0.000431,0.003878
3196000,0.0324,0.013523,0.002678,0.000431,0.003408
3197000,0.0324,0.013523,0.002678,0.000431,0.004349
3198000,0.0324,0.013523,0.002678,0.000431,0.004231
3199000,0.0324,0.013523,0.002678,0.000431,0.003878
3200000,0.0324,0.013523,0.002678,0.000431,0.003526
3201000,0.0324,0.013523,0.002678,0.000431,0.004349
3202000,0.0324,0.013523,0.002678,0.000431,0.003878
3203000,0.0324,0.013523,0.002678,0.000431,0.003408
3204000,0.0324,0.013523,0.002678,0.000431,0.003996
3205000,0.0324,0.013523,0.002678,0.000431,0.003761
3206000,0.0324,0.013523,0.002678,0.000431,0.003878
3207000,0.0324,0.013523,0.002678,0.000431,0.003996
3208000,0.0324,0.013523,0.002678,0.000431,0.004466
3209000,0.0324,0.013523,0.002678,0.000431,0.003526
3210000,0.0324,0.013523,0.002678,0.000431,0.003643
3211000,0.0324,0.013523,0.002678,0.000431,0.004231
3212000,0.0324,0.013523,0.002678,0.000431,0.004113
3213000,0.0324,0.013523,0.002678,0.000431,0.003408
3214000,0.0324,0.013523,0.002678,0.000431,0.003878
3215000,0.0324,0.013523,0.002678,0.000431,0.004584
3216000,0.0324,0.013523,0.002678,0.000431,0.003643
3217000,0.0324,0.013523,0.002678,0.000431,0.003761
3218000,0.0324,0.013523,0.002678,0.000431,0.003408
3219000,0.0324,0.013523,0.002678,0.000431,0.003996
3220000,0.0324,0.013523,0.002678,0.000431,0.004113
3221000,0.0324,0.013523,0.002678,0.000431,0.003878
3222000,0.0324,0.013523,0.002678,0.000431,0.003761
3223000,0.0324,0.013523,0.002678,0.000431,0.003996
3224000,0.0324,0.013523,0.002678,0.000431,0.003878
3225000,0.0324,0.013523,0.002678,0.000431,0.004349
3226000,0.0324,0.013523,0.002678,0.000431,0.004113
3227000,0.0324,0.013523,0.002678,0.000431,0.003996
3228000,0.0324,0.013523,0.002678,0.000431,0.004113
3229000,0.0324,0.013523,0.002678,0.000431,0.003643
3230000,0.0324,0.013523,0.002678,0.000431,0.003878
3231000,0.0324,0.013523,0.002678,0.000431,0.003408
3232000,0.0324,0.013523,0.002678,0.000431,0.004113
3233000,0.0324,0.013523,0.002678,0.000431,0.004113
3234000,0.0324,0.013523,0.002678,0.000431,0.003761
3235000,0.0324,0.013523,0.002678,0.000431,0.003761
3236000,0.0324,0.013523,0.002678,0.000431,0.003996
3237000,0.0324,0.013523,0.002678,0.000431,0.004113
3238000,0.0324,0.013523,0.002678,0.000431,0.003878
3239000,0.0324,0.013523,0.002678,0.000431,0.004231
3240000,0.0324,0.013523,0.002678,0.000431,0.004113
3241000,0.0324,0.013523,0.002678,0.000431,0.003526
3242000,0.0324,0.013523,0.002678,0.000431,0.003996
3243000,0.0324,0.013523,0.002678,0.000431,0.003878
3244000,0.0324,0.013523,0.002678,0.000431,0.003878
3245000,0.0324,0.013523,0.002678,0.000431,0.003878
3246000,0.0324,0.013523,0.002678,0.000431,0.004349
3247000,0.0324,0.013523,0.002678,0.000431,0.003996
3248000,0.0324,0.013523,0.002678,0.000431,0.003526
3249000,0.0324,0.013523,0.002678,0.000431,0.004584
3250000,0.0324,0.013523,0.002678,0.000431,0.004113
3251000,0.0324,0.013523,0.002678,0.000431,0.003643
3252000,0.0324,0.013523,0.002678,0.000431,0.003996
3253000,0.0324,0.013523,0.002678,0.000431,0.003761
3254000,0.0324,0.013523,0.002678,0.000431,0.003408
3255000,0.0324,0.013523,0.002678,0.000431,0.003996
3256000,0.0324,0.013523,0.002678,0.000431,0.004349
3257000,0.0324,0.013523,0.002678,0.000431,0.003878
3258000,0.0324,0.013523,0.002678,0.000431,0.003761
3259000,0.0324,0.013523,0.002678,0.000431,0.003996
3260000,0.0324,0.013523,0.002678,0.000431,0.003643
3261000,0.0324,0.013523,0.002678,0.000431,0.003526
3262000,0.0324,0.013523,0.002678,0.000431,0.004113
3263000,0.0324,0.013523,0.002678,0.000431,0.003878
3264000,0.0324,0.013523,0.002678,0.000431,0.003878
3265000,0.0324,0.013523,0.002678,0.000431,0.003996
3266000,0.0324,0.013523,0.002678,0.000431,0.004231
3267000,0.0324,0.013523,0.002678,0.000431,0.003761
3268000,0.0324,0.013523,0.002678,0.000431,0.003761
3269000,0.0324,0.013523,0.002678,0.000431,0.004231
3270000,0.0324,0.013523,0.002678,0.000431,0.003996
3271000,0.0324,0.013523,0.002678,0.000431,0.003996
3272000,0.0324,0.013523,0.002678,0.000431,0.003996
3273000,0.0324,0.013523,0.002678,0.000431,0.003878
3274000,0.0324,0.013523,0.002678,0.000431,0.004113
3275000,0.0324,0.013523,0.002678,0.000431,0.003643
3276000,0.0324,0.013523,0.002678,0.000431,0.004113
3277000,0.0324,0.013523,0.002678,0.000431,0.003996
3278000,0.0324,0.013523,0.002678,0.000431,0.003761
3279000,0.0324,0.013523,0.002678,0.000431,0.003878
3280000,0.0324,0.013523,0.002678,0.000431,0.003761
3281000,0.0324,0.013523,0.002678,0.000431,0.003643
3282000,0.0324,0.013523,0.002678,0.000431,0.003643
3283000,0.0324,0.013523,0.002678,0.000431,0.003996
3284000,0.0324,0.013523,0.002678,0.000431,0.003996
3285000,0.0324,0.013523,0.002678,0.000431,0.004231
3286000,0.0324,0.013523,0.002678,0.000431,0.003878
3287000,0.0324,0.013523,0.002678,0.000431,0.003878
3288000,0.0324,0.013523,0.002678,0.000431,0.003526
3289000,0.0324,0.013523,0.002678,0.000431,0.003526
3290000,0.0324,0.013523,0.002678,0.000431,0.003996
3291000,0.0324,0.013523,0.002678,0.000431,0.003996
3292000,0.0324,0.013523,0.002678,0.000431,0.003408
3293000,0.0324,0.013523,0.002678,0.000431,0.004113
3294000,0.0324,0.013523,0.002678,0.000431,0.003643
3295000,0.0324,0.013523,0.002678,0.000431,0.003878
3296000,0.0324,0.013523,0.002678,0.000431,0.003878
3297000,0.0324,0.013523,0.002678,0.000431,0.004113
3298000,0.0324,0.013523,0.002678,0.000431,0.004113
3299000,0.0324,0.013523,0.002678,0.000431,0.003643
3300000,0.0324,0.013523,0.002678,0.000431,0.003996
3301000,0.0324,0.013523,0.002678,0.000431,0.003996
3302000,0.0324,0.013523,0.002678,0.000431,0.003996
3303000,0.0324,0.013523,0.002678,0.000431,0.003643
3304000,0.0324,0.013523,0.002678,0.000431,0.003761
3305000,0.0324,0.013523,0.002678,0.000431,0.003878
3306000,0.0324,0.013523,0.002678,0.000431,0.003408
3307000,0.0324,0.013523,0.002678,0.000431,0.004349
3308000,0.0324,0.013523,0.002678,0.000431,0.003526
3309000,0.0324,0.013523,0.002678,0.000431,0.004349
3310000,0.0324,0.013523,0.002678,0.000431,0.003643
3311000,0.0324,0.013523,0.002678,0.000431,0.003761
3312000,0.0324,0.013523,0.002678,0.000431,0.003996
3313000,0.0324,0.013523,0.002678,0.000431,0.003878
3314000,0.0324,0.013523,0.002678,0.000431,0.004349
3315000,0.0324,0.013523,0.002678,0.000431,0.003996
3316000,0.0324,0.013523,0.002678,0.000431,0.003878
3317000,0.0324,0.013523,0.002678,0.000431,0.003526
3318000,0.0324,0.013523,0.002678,0.000431,0.004231
3319000,0.0324,0.013523,0.002678,0.000431,0.003996
3320000,0.0324,0.013523,0.002678,0.000431,0.003878
3321000,0.0324,0.013523,0.002678,0.000431,0.004466
3322000,0.0324,0.013523,0.002678,0.000431,0.003643
3323000,0.0324,0.013523,0.002678,0.000431,0.003761
3324000,0.0324,0.013523,0.002678,0.000431,0.004231
3325000,0.0324,0.013523,0.002678,0.000431,0.003878
3326000,0.0324,0.013523,0.002678,0.000431,0.003878
3327000,0.0324,0.013523,0.002678,0.000431,0.004113
3328000,0.0324,0.013523,0.002678,0.000431,0.004113
3329000,0.0324,0.013523,0.002678,0.000431,0.003408
3330000,0.0324,0.013523,0.002678,0.000431,0.003878
3331000,0.0324,0.013523,0.002678,0.000431,0.004466
3332000,0.0324,0.013523,0.002678,0.000431,0.003761
3333000,0.0324,0.013523,0.002678,0.000431,0.003526
3334000,0.0324,0.013523,0.002678,0.000431,0.003996
3335000,0.0324,0.013523,0.002678,0.000431,0.003761
3336000,0.0324,0.013523,0.002678,0.000431,0.003878
3337000,0.0324,0.013523,0.002678,0.000431,0.003996
3338000,0.0324,0.013523,0.002678,0.000431,0.004349
3339000,0.0324,0.013523,0.002678,0.000431,0.003526
3340000,0.0324,0.013523,0.002678,0.000431,0.003526
3341000,0.0324,0.013523,0.002678,0.000431,0.004584
3342000,0.0324,0.013523,0.002678,0.000431,0.003643
3343000,0.0324,0.013523,0.002678,0.000431,0.003643
3344000,0.0324,0.013523,0.002678,0.000431,0.004936
3345000,0.0324,0.013523,0.002678,0.000431,0.003526
3346000,0.0324,0.013523,0.002678,0.000431,0.003526
3347000,0.0324,0.013523,0.002678,0.000431,0.004349
3348000,0.0324,0.013523,0.002678,0.000431,0.003996
3349000,0.0324,0.013523,0.002678,0.000431,0.003408
3350000,0.0324,0.013523,0.002678,0.000431,0.004231
3351000,0.0324,0.013523,0.002678,0.000431,0.004113
3352000,0.0324,0.013523,0.002678,0.000431,0.003643
3353000,0.0324,0.013523,0.002678,0.000431,0.004113
3354000,0.0324,0.013523,0.002678,0.000431,0.003878
3355000,0.0324,0.013523,0.002678,0.000431,0.003643
3356000,0.0324,0.013523,0.002678,0.000431,0.003878
3357000,0.0324,0.013523,0.002678,0.000431,0.004231
3358000,0.0324,0.013523,0.002678,0.000431,0.003878
3359000,0.0324,0.013523,0.002678,0.000431,0.003643
3360000,0.0324,0.013523,0.002678,0.000431,0.003878
3361000,0.0324,0.013523,0.002678,0.000431,0.004349
3362000,0.0324,0.013523,0.002678,0.000431,0.003878
3363000,0.0324,0.013523,0.002678,0.000431,0.004231
3364000,0.0324,0.013523,0.002678,0.000431,0.003643
3365000,0.0324,0.013523,0.002678,0.000431,0.003761
3366000,0.0324,0.013523,0.002678,0.000431,0.003996
3367000,0.0324,0.013523,0.002678,0.000431,0.004231
3368000,0.0324,0.013523,0.002678,0.000431,0.003878
3369000,0.0324,0.013523,0.002678,0.000431,0.003526
3370000,0.0324,0.013523,0.002678,0.000431,0.004113
3371000,0.0324,0.013523,0.002678,0.000431,0.003643
3372000,0.0324,0.013523,0.002678,0.000431,0.003291
3373000,0.0324,0.013523,0.002678,0.000431,0.004349
3374000,0.0324,0.013523,0.002678,0.000431,0.003643
3375000,0.0324,0.013523,0.002678,0.000431,0.003526
3376000,0.0324,0.013523,0.002678,0.000431,0.003996
3377000,0.0324,0.013523,0.002678,0.000431,0.003878
3378000,0.0324,0.013523,0.002678,0.000431,0.003761
3379000,0.0324,0.013523,0.002678,0.000431,0.003878
3380000,0.0324,0.013523,0.002678,0.000431,0.004113
3381000,0.0324,0.013523,0.002678,0.000431,0.003761
3382000,0.0324,0.013523,0.002678,0.000431,0.003173
3383000,0.0324,0.013523,0.002678,0.000431,0.004231
3384000,0.0324,0.013523,0.002678,0.000431,0.003996
3385000,0.0324,0.013523,0.002678,0.000431,0.003408
3386000,0.0324,0.013523,0.002678,0.000431,0.004113
3387000,0.0324,0.013523,0.002678,0.000431,0.003996
3388000,0.0324,0.013523,0.002678,0.000431,0.003643
3389000,0.0324,0.013523,0.002678,0.000431,0.003878
