Cycle,Area(mm^2),PeakDynamic(W),SubthresholdLeakage(W),GateLeakage(W),RunTimeDynamic(W)
9000000,0.0324,0.013523,0.002678,0.000431,0.024446
9001000,0.0324,0.013523,0.002678,0.000431,0.041605
9002000,0.0324,0.013523,0.002678,0.000431,0.031027
9003000,0.0324,0.013523,0.002678,0.000431,0.019980
9004000,0.0324,0.013523,0.002678,0.000431,0.004701
9005000,0.0324,0.013523,0.002678,0.000431,0.012223
9006000,0.0324,0.013523,0.002678,0.000431,0.004701
9007000,0.0324,0.013523,0.002678,0.000431,0.004936
9008000,0.0324,0.013523,0.002678,0.000431,0.037256
9009000,0.0324,0.013523,0.002678,0.000431,0.010695
9010000,0.0324,0.013523,0.002678,0.000431,0.004701
9011000,0.0324,0.013523,0.002678,0.000431,0.005876
9012000,0.0324,0.013523,0.002678,0.000431,0.005876
9013000,0.0324,0.013523,0.002678,0.000431,0.004701
9014000,0.0324,0.013523,0.002678,0.000431,0.077451
9015000,0.0324,0.013523,0.002678,0.000431,0.021743
9016000,0.0324,0.013523,0.002678,0.000431,0.004701
9017000,0.0324,0.013523,0.002678,0.000431,0.004701
9018000,0.0324,0.013523,0.002678,0.000431,0.004701
9019000,0.0324,0.013523,0.002678,0.000431,0.027502
9020000,0.0324,0.013523,0.002678,0.000431,0.004701
9021000,0.0324,0.013523,0.002678,0.000431,0.027267
9022000,0.0324,0.013523,0.002678,0.000431,0.004701
9023000,0.0324,0.013523,0.002678,0.000431,0.004701
9024000,0.0324,0.013523,0.002678,0.000431,0.004701
9025000,0.0324,0.013523,0.002678,0.000431,0.020450
9026000,0.0324,0.013523,0.002678,0.000431,0.040430
9027000,0.0324,0.013523,0.002678,0.000431,0.012223
9028000,0.0324,0.013523,0.002678,0.000431,0.019745
9029000,0.0324,0.013523,0.002678,0.000431,0.004701
9030000,0.0324,0.013523,0.002678,0.000431,0.012223
9031000,0.0324,0.013523,0.002678,0.000431,0.004701
9032000,0.0324,0.013523,0.002678,0.000431,0.004701
9033000,0.0324,0.013523,0.002678,0.000431,0.018569
9034000,0.0324,0.013523,0.002678,0.000431,0.021625
9035000,0.0324,0.013523,0.002678,0.000431,0.010578
9036000,0.0324,0.013523,0.002678,0.000431,0.012811
9037000,0.0324,0.013523,0.002678,0.000431,0.011400
9038000,0.0324,0.013523,0.002678,0.000431,0.004701
9039000,0.0324,0.013523,0.002678,0.000431,0.013046
9040000,0.0324,0.013523,0.002678,0.000431,0.033966
9041000,0.0324,0.013523,0.002678,0.000431,0.012223
9042000,0.0324,0.013523,0.002678,0.000431,0.004701
9043000,0.0324,0.013523,0.002678,0.000431,0.027267
9044000,0.0324,0.013523,0.002678,0.000431,0.004701
9045000,0.0324,0.013523,0.002678,0.000431,0.004701
9046000,0.0324,0.013523,0.002678,0.000431,0.034788
9047000,0.0324,0.013523,0.002678,0.000431,0.004701
9048000,0.0324,0.013523,0.002678,0.000431,0.004701
9049000,0.0324,0.013523,0.002678,0.000431,0.020685
9050000,0.0324,0.013523,0.002678,0.000431,0.048892
9051000,0.0324,0.013523,0.002678,0.000431,0.004701
9052000,0.0324,0.013523,0.002678,0.000431,0.004701
9053000,0.0324,0.013523,0.002678,0.000431,0.011753
9054000,0.0324,0.013523,0.002678,0.000431,0.012458
9055000,0.0324,0.013523,0.002678,0.000431,0.004701
9056000,0.0324,0.013523,0.002678,0.000431,0.042545
9057000,0.0324,0.013523,0.002678,0.000431,0.004701
9058000,0.0324,0.013523,0.002678,0.000431,0.004701
9059000,0.0324,0.013523,0.002678,0.000431,0.004701
9060000,0.0324,0.013523,0.002678,0.000431,0.018569
9061000,0.0324,0.013523,0.002678,0.000431,0.004701
9062000,0.0324,0.013523,0.002678,0.000431,0.004701
9063000,0.0324,0.013523,0.002678,0.000431,0.019745
9064000,0.0324,0.013523,0.002678,0.000431,0.004701
9065000,0.0324,0.013523,0.002678,0.000431,0.004584
9066000,0.0324,0.013523,0.002678,0.000431,0.019745
9067000,0.0324,0.013523,0.002678,0.000431,0.027031
9068000,0.0324,0.013523,0.002678,0.000431,0.011635
9069000,0.0324,0.013523,0.002678,0.000431,0.031262
9070000,0.0324,0.013523,0.002678,0.000431,0.023506
9071000,0.0324,0.013523,0.002678,0.000431,0.004701
9072000,0.0324,0.013523,0.002678,0.000431,0.004701
9073000,0.0324,0.013523,0.002678,0.000431,0.066286
9074000,0.0324,0.013523,0.002678,0.000431,0.024681
9075000,0.0324,0.013523,0.002678,0.000431,0.004701
9076000,0.0324,0.013523,0.002678,0.000431,0.019627
9077000,0.0324,0.013523,0.002678,0.000431,0.004349
9078000,0.0324,0.013523,0.002678,0.000431,0.004701
9079000,0.0324,0.013523,0.002678,0.000431,0.004701
9080000,0.0324,0.013523,0.002678,0.000431,0.012340
9081000,0.0324,0.013523,0.002678,0.000431,0.025856
9082000,0.0324,0.013523,0.002678,0.000431,0.058882
9083000,0.0324,0.013523,0.002678,0.000431,0.004701
9084000,0.0324,0.013523,0.002678,0.000431,0.004701
9085000,0.0324,0.013523,0.002678,0.000431,0.004701
9086000,0.0324,0.013523,0.002678,0.000431,0.004701
9087000,0.0324,0.013523,0.002678,0.000431,0.012223
9088000,0.0324,0.013523,0.002678,0.000431,0.004701
9089000,0.0324,0.013523,0.002678,0.000431,0.012223
9090000,0.0324,0.013523,0.002678,0.000431,0.004701
9091000,0.0324,0.013523,0.002678,0.000431,0.004701
9092000,0.0324,0.013523,0.002678,0.000431,0.004701
9093000,0.0324,0.013523,0.002678,0.000431,0.004701
9094000,0.0324,0.013523,0.002678,0.000431,0.055708
9095000,0.0324,0.013523,0.002678,0.000431,0.039960
9096000,0.0324,0.013523,0.002678,0.000431,0.008462
9097000,0.0324,0.013523,0.002678,0.000431,0.004701
9098000,0.0324,0.013523,0.002678,0.000431,0.004701
9099000,0.0324,0.013523,0.002678,0.000431,0.004701
9100000,0.0324,0.013523,0.002678,0.000431,0.029265
9101000,0.0324,0.013523,0.002678,0.000431,0.087441
9102000,0.0324,0.013523,0.002678,0.000431,0.016571
9103000,0.0324,0.013523,0.002678,0.000431,0.004701
9104000,0.0324,0.013523,0.002678,0.000431,0.004701
9105000,0.0324,0.013523,0.002678,0.000431,0.042310
9106000,0.0324,0.013523,0.002678,0.000431,0.004701
9107000,0.0324,0.013523,0.002678,0.000431,0.004701
9108000,0.0324,0.013523,0.002678,0.000431,0.027267
9109000,0.0324,0.013523,0.002678,0.000431,0.004701
9110000,0.0324,0.013523,0.002678,0.000431,0.004701
9111000,0.0324,0.013523,0.002678,0.000431,0.004701
9112000,0.0324,0.013523,0.002678,0.000431,0.004701
9113000,0.0324,0.013523,0.002678,0.000431,0.012223
9114000,0.0324,0.013523,0.002678,0.000431,0.024916
9115000,0.0324,0.013523,0.002678,0.000431,0.157488
9116000,0.0324,0.013523,0.002678,0.000431,0.004466
9117000,0.0324,0.013523,0.002678,0.000431,0.004466
9118000,0.0324,0.013523,0.002678,0.000431,0.017982
9119000,0.0324,0.013523,0.002678,0.000431,0.006464
9120000,0.0324,0.013523,0.002678,0.000431,0.012223
9121000,0.0324,0.013523,0.002678,0.000431,0.004701
9122000,0.0324,0.013523,0.002678,0.000431,0.004701
9123000,0.0324,0.013523,0.002678,0.000431,0.004701
9124000,0.0324,0.013523,0.002678,0.000431,0.004701
9125000,0.0324,0.013523,0.002678,0.000431,0.042193
9126000,0.0324,0.013523,0.002678,0.000431,0.004584
9127000,0.0324,0.013523,0.002678,0.000431,0.042310
9128000,0.0324,0.013523,0.002678,0.000431,0.012223
9129000,0.0324,0.013523,0.002678,0.000431,0.004701
9130000,0.0324,0.013523,0.002678,0.000431,0.004701
9131000,0.0324,0.013523,0.002678,0.000431,0.027267
9132000,0.0324,0.013523,0.002678,0.000431,0.012223
9133000,0.0324,0.013523,0.002678,0.000431,0.012223
9134000,0.0324,0.013523,0.002678,0.000431,0.057236
9135000,0.0324,0.013523,0.002678,0.000431,0.008345
9136000,0.0324,0.013523,0.002678,0.000431,0.008462
9137000,0.0324,0.013523,0.002678,0.000431,0.004701
9138000,0.0324,0.013523,0.002678,0.000431,0.042310
9139000,0.0324,0.013523,0.002678,0.000431,0.019745
9140000,0.0324,0.013523,0.002678,0.000431,0.004701
9141000,0.0324,0.013523,0.002678,0.000431,0.004701
9142000,0.0324,0.013523,0.002678,0.000431,0.004701
9143000,0.0324,0.013523,0.002678,0.000431,0.004701
9144000,0.0324,0.013523,0.002678,0.000431,0.004701
9145000,0.0324,0.013523,0.002678,0.000431,0.028677
9146000,0.0324,0.013523,0.002678,0.000431,0.018334
9147000,0.0324,0.013523,0.002678,0.000431,0.012223
9148000,0.0324,0.013523,0.002678,0.000431,0.087441
9149000,0.0324,0.013523,0.002678,0.000431,0.004701
9150000,0.0324,0.013523,0.002678,0.000431,0.004701
9151000,0.0324,0.013523,0.002678,0.000431,0.004701
9152000,0.0324,0.013523,0.002678,0.000431,0.023506
9153000,0.0324,0.013523,0.002678,0.000431,0.008462
9154000,0.0324,0.013523,0.002678,0.000431,0.027267
9155000,0.0324,0.013523,0.002678,0.000431,0.004701
9156000,0.0324,0.013523,0.002678,0.000431,0.004466
9157000,0.0324,0.013523,0.002678,0.000431,0.062995
9158000,0.0324,0.013523,0.002678,0.000431,0.040195
9159000,0.0324,0.013523,0.002678,0.000431,0.038549
9160000,0.0324,0.013523,0.002678,0.000431,0.015984
9161000,0.0324,0.013523,0.002678,0.000431,0.046071
9162000,0.0324,0.013523,0.002678,0.000431,0.004701
9163000,0.0324,0.013523,0.002678,0.000431,0.004701
9164000,0.0324,0.013523,0.002678,0.000431,0.049832
9165000,0.0324,0.013523,0.002678,0.000431,0.004584
9166000,0.0324,0.013523,0.002678,0.000431,0.049714
9167000,0.0324,0.013523,0.002678,0.000431,0.086266
9168000,0.0324,0.013523,0.002678,0.000431,0.005876
9169000,0.0324,0.013523,0.002678,0.000431,0.004701
9170000,0.0324,0.013523,0.002678,0.000431,0.004701
9171000,0.0324,0.013523,0.002678,0.000431,0.004701
9172000,0.0324,0.013523,0.002678,0.000431,0.004701
9173000,0.0324,0.013523,0.002678,0.000431,0.045131
9174000,0.0324,0.013523,0.002678,0.000431,0.016807
9175000,0.0324,0.013523,0.002678,0.000431,0.004584
9176000,0.0324,0.013523,0.002678,0.000431,0.004701
9177000,0.0324,0.013523,0.002678,0.000431,0.064876
9178000,0.0324,0.013523,0.002678,0.000431,0.035376
9179000,0.0324,0.013523,0.002678,0.000431,0.056766
9180000,0.0324,0.013523,0.002678,0.000431,0.094963
9181000,0.0324,0.013523,0.002678,0.000431,0.004701
9182000,0.0324,0.013523,0.002678,0.000431,0.004701
9183000,0.0324,0.013523,0.002678,0.000431,0.004701
9184000,0.0324,0.013523,0.002678,0.000431,0.042310
9185000,0.0324,0.013523,0.002678,0.000431,0.004701
9186000,0.0324,0.013523,0.002678,0.000431,0.025739
9187000,0.0324,0.013523,0.002678,0.000431,0.051360
9188000,0.0324,0.013523,0.002678,0.000431,0.004701
9189000,0.0324,0.013523,0.002678,0.000431,0.004701
9190000,0.0324,0.013523,0.002678,0.000431,0.079919
9191000,0.0324,0.013523,0.002678,0.000431,0.004701
9192000,0.0324,0.013523,0.002678,0.000431,0.004701
9193000,0.0324,0.013523,0.002678,0.000431,0.060292
9194000,0.0324,0.013523,0.002678,0.000431,0.016807
9195000,0.0324,0.013523,0.002678,0.000431,0.004701
9196000,0.0324,0.013523,0.002678,0.000431,0.008227
9197000,0.0324,0.013523,0.002678,0.000431,0.008345
9198000,0.0324,0.013523,0.002678,0.000431,0.004584
9199000,0.0324,0.013523,0.002678,0.000431,0.030557
9200000,0.0324,0.013523,0.002678,0.000431,0.061585
9201000,0.0324,0.013523,0.002678,0.000431,0.004701
9202000,0.0324,0.013523,0.002678,0.000431,0.004701
9203000,0.0324,0.013523,0.002678,0.000431,0.004701
9204000,0.0324,0.013523,0.002678,0.000431,0.019745
9205000,0.0324,0.013523,0.002678,0.000431,0.004584
9206000,0.0324,0.013523,0.002678,0.000431,0.012105
9207000,0.0324,0.013523,0.002678,0.000431,0.004701
9208000,0.0324,0.013523,0.002678,0.000431,0.004701
9209000,0.0324,0.013523,0.002678,0.000431,0.004701
9210000,0.0324,0.013523,0.002678,0.000431,0.027267
9211000,0.0324,0.013523,0.002678,0.000431,0.004701
9212000,0.0324,0.013523,0.002678,0.000431,0.028442
9213000,0.0324,0.013523,0.002678,0.000431,0.034788
9214000,0.0324,0.013523,0.002678,0.000431,0.011988
9215000,0.0324,0.013523,0.002678,0.000431,0.004701
9216000,0.0324,0.013523,0.002678,0.000431,0.004701
9217000,0.0324,0.013523,0.002678,0.000431,0.004701
9218000,0.0324,0.013523,0.002678,0.000431,0.004701
9219000,0.0324,0.013523,0.002678,0.000431,0.019745
9220000,0.0324,0.013523,0.002678,0.000431,0.004701
9221000,0.0324,0.013523,0.002678,0.000431,0.004701
9222000,0.0324,0.013523,0.002678,0.000431,0.004701
9223000,0.0324,0.013523,0.002678,0.000431,0.027267
9224000,0.0324,0.013523,0.002678,0.000431,0.012223
9225000,0.0324,0.013523,0.002678,0.000431,0.012223
9226000,0.0324,0.013523,0.002678,0.000431,0.004701
9227000,0.0324,0.013523,0.002678,0.000431,0.070752
9228000,0.0324,0.013523,0.002678,0.000431,0.006347
9229000,0.0324,0.013523,0.002678,0.000431,0.015984
9230000,0.0324,0.013523,0.002678,0.000431,0.036669
9231000,0.0324,0.013523,0.002678,0.000431,0.029147
9232000,0.0324,0.013523,0.002678,0.000431,0.030087
9233000,0.0324,0.013523,0.002678,0.000431,0.009402
9234000,0.0324,0.013523,0.002678,0.000431,0.004701
9235000,0.0324,0.013523,0.002678,0.000431,0.004701
9236000,0.0324,0.013523,0.002678,0.000431,0.004584
9237000,0.0324,0.013523,0.002678,0.000431,0.034553
9238000,0.0324,0.013523,0.002678,0.000431,0.004584
9239000,0.0324,0.013523,0.002678,0.000431,0.042310
9240000,0.0324,0.013523,0.002678,0.000431,0.004701
9241000,0.0324,0.013523,0.002678,0.000431,0.004701
9242000,0.0324,0.013523,0.002678,0.000431,0.004701
9243000,0.0324,0.013523,0.002678,0.000431,0.034788
9244000,0.0324,0.013523,0.002678,0.000431,0.004701
9245000,0.0324,0.013523,0.002678,0.000431,0.042545
9246000,0.0324,0.013523,0.002678,0.000431,0.011753
9247000,0.0324,0.013523,0.002678,0.000431,0.034788
9248000,0.0324,0.013523,0.002678,0.000431,0.004701
9249000,0.0324,0.013523,0.002678,0.000431,0.011400
9250000,0.0324,0.013523,0.002678,0.000431,0.005524
9251000,0.0324,0.013523,0.002678,0.000431,0.012223
9252000,0.0324,0.013523,0.002678,0.000431,0.004701
9253000,0.0324,0.013523,0.002678,0.000431,0.023506
9254000,0.0324,0.013523,0.002678,0.000431,0.008345
9255000,0.0324,0.013523,0.002678,0.000431,0.004584
9256000,0.0324,0.013523,0.002678,0.000431,0.004701
9257000,0.0324,0.013523,0.002678,0.000431,0.035494
9258000,0.0324,0.013523,0.002678,0.000431,0.042310
9259000,0.0324,0.013523,0.002678,0.000431,0.049127
9260000,0.0324,0.013523,0.002678,0.000431,0.042310
9261000,0.0324,0.013523,0.002678,0.000431,0.004701
9262000,0.0324,0.013523,0.002678,0.000431,0.019745
9263000,0.0324,0.013523,0.002678,0.000431,0.004701
9264000,0.0324,0.013523,0.002678,0.000431,0.004701
9265000,0.0324,0.013523,0.002678,0.000431,0.027267
9266000,0.0324,0.013523,0.002678,0.000431,0.008462
9267000,0.0324,0.013523,0.002678,0.000431,0.008462
9268000,0.0324,0.013523,0.002678,0.000431,0.004701
9269000,0.0324,0.013523,0.002678,0.000431,0.019745
9270000,0.0324,0.013523,0.002678,0.000431,0.031615
9271000,0.0324,0.013523,0.002678,0.000431,0.026679
9272000,0.0324,0.013523,0.002678,0.000431,0.008462
9273000,0.0324,0.013523,0.002678,0.000431,0.027267
9274000,0.0324,0.013523,0.002678,0.000431,0.004701
9275000,0.0324,0.013523,0.002678,0.000431,0.004701
9276000,0.0324,0.013523,0.002678,0.000431,0.004584
9277000,0.0324,0.013523,0.002678,0.000431,0.019627
9278000,0.0324,0.013523,0.002678,0.000431,0.004466
9279000,0.0324,0.013523,0.002678,0.000431,0.004701
9280000,0.0324,0.013523,0.002678,0.000431,0.012223
9281000,0.0324,0.013523,0.002678,0.000431,0.004466
9282000,0.0324,0.013523,0.002678,0.000431,0.012223
9283000,0.0324,0.013523,0.002678,0.000431,0.004701
9284000,0.0324,0.013523,0.002678,0.000431,0.008462
9285000,0.0324,0.013523,0.002678,0.000431,0.076158
9286000,0.0324,0.013523,0.002678,0.000431,0.004701
9287000,0.0324,0.013523,0.002678,0.000431,0.008227
9288000,0.0324,0.013523,0.002678,0.000431,0.016219
9289000,0.0324,0.013523,0.002678,0.000431,0.004701
9290000,0.0324,0.013523,0.002678,0.000431,0.004701
9291000,0.0324,0.013523,0.002678,0.000431,0.117293
9292000,0.0324,0.013523,0.002678,0.000431,0.004701
9293000,0.0324,0.013523,0.002678,0.000431,0.079919
9294000,0.0324,0.013523,0.002678,0.000431,0.019627
9295000,0.0324,0.013523,0.002678,0.000431,0.004584
9296000,0.0324,0.013523,0.002678,0.000431,0.004701
9297000,0.0324,0.013523,0.002678,0.000431,0.004701
9298000,0.0324,0.013523,0.002678,0.000431,0.004701
9299000,0.0324,0.013523,0.002678,0.000431,0.014691
9300000,0.0324,0.013523,0.002678,0.000431,0.025034
9301000,0.0324,0.013523,0.002678,0.000431,0.004701
9302000,0.0324,0.013523,0.002678,0.000431,0.004701
9303000,0.0324,0.013523,0.002678,0.000431,0.004701
9304000,0.0324,0.013523,0.002678,0.000431,0.012223
9305000,0.0324,0.013523,0.002678,0.000431,0.004701
9306000,0.0324,0.013523,0.002678,0.000431,0.012458
9307000,0.0324,0.013523,0.002678,0.000431,0.004701
9308000,0.0324,0.013523,0.002678,0.000431,0.004701
9309000,0.0324,0.013523,0.002678,0.000431,0.004584
9310000,0.0324,0.013523,0.002678,0.000431,0.024328
9311000,0.0324,0.013523,0.002678,0.000431,0.188515
9312000,0.0324,0.013523,0.002678,0.000431,0.006817
9313000,0.0324,0.013523,0.002678,0.000431,0.077804
9314000,0.0324,0.013523,0.002678,0.000431,0.004701
9315000,0.0324,0.013523,0.002678,0.000431,0.008462
9316000,0.0324,0.013523,0.002678,0.000431,0.038432
9317000,0.0324,0.013523,0.002678,0.000431,0.028207
9318000,0.0324,0.013523,0.002678,0.000431,0.041252
9319000,0.0324,0.013523,0.002678,0.000431,0.012223
9320000,0.0324,0.013523,0.002678,0.000431,0.012223
9321000,0.0324,0.013523,0.002678,0.000431,0.004701
9322000,0.0324,0.013523,0.002678,0.000431,0.064405
9323000,0.0324,0.013523,0.002678,0.000431,0.012458
9324000,0.0324,0.013523,0.002678,0.000431,0.079919
9325000,0.0324,0.013523,0.002678,0.000431,0.034788
9326000,0.0324,0.013523,0.002678,0.000431,0.072397
9327000,0.0324,0.013523,0.002678,0.000431,0.004701
9328000,0.0324,0.013523,0.002678,0.000431,0.004701
9329000,0.0324,0.013523,0.002678,0.000431,0.004701
9330000,0.0324,0.013523,0.002678,0.000431,0.013633
9331000,0.0324,0.013523,0.002678,0.000431,0.040900
9332000,0.0324,0.013523,0.002678,0.000431,0.004701
9333000,0.0324,0.013523,0.002678,0.000431,0.102485
9334000,0.0324,0.013523,0.002678,0.000431,0.012223
9335000,0.0324,0.013523,0.002678,0.000431,0.004466
9336000,0.0324,0.013523,0.002678,0.000431,0.004701
9337000,0.0324,0.013523,0.002678,0.000431,0.004701
9338000,0.0324,0.013523,0.002678,0.000431,0.012223
9339000,0.0324,0.013523,0.002678,0.000431,0.023271
9340000,0.0324,0.013523,0.002678,0.000431,0.084150
9341000,0.0324,0.013523,0.002678,0.000431,0.004701
9342000,0.0324,0.013523,0.002678,0.000431,0.094963
9343000,0.0324,0.013523,0.002678,0.000431,0.004701
9344000,0.0324,0.013523,0.002678,0.000431,0.059117
9345000,0.0324,0.013523,0.002678,0.000431,0.010225
9346000,0.0324,0.013523,0.002678,0.000431,0.094963
9347000,0.0324,0.013523,0.002678,0.000431,0.012693
9348000,0.0324,0.013523,0.002678,0.000431,0.035846
9349000,0.0324,0.013523,0.002678,0.000431,0.018687
9350000,0.0324,0.013523,0.002678,0.000431,0.004701
9351000,0.0324,0.013523,0.002678,0.000431,0.057354
9352000,0.0324,0.013523,0.002678,0.000431,0.102837
9353000,0.0324,0.013523,0.002678,0.000431,0.079802
9354000,0.0324,0.013523,0.002678,0.000431,0.004701
9355000,0.0324,0.013523,0.002678,0.000431,0.012223
9356000,0.0324,0.013523,0.002678,0.000431,0.004701
9357000,0.0324,0.013523,0.002678,0.000431,0.004701
9358000,0.0324,0.013523,0.002678,0.000431,0.004701
9359000,0.0324,0.013523,0.002678,0.000431,0.172179
9360000,0.0324,0.013523,0.002678,0.000431,0.017982
9361000,0.0324,0.013523,0.002678,0.000431,0.005524
9362000,0.0324,0.013523,0.002678,0.000431,0.086618
9363000,0.0324,0.013523,0.002678,0.000431,0.004701
9364000,0.0324,0.013523,0.002678,0.000431,0.004466
9365000,0.0324,0.013523,0.002678,0.000431,0.008462
9366000,0.0324,0.013523,0.002678,0.000431,0.015866
9367000,0.0324,0.013523,0.002678,0.000431,0.004584
9368000,0.0324,0.013523,0.002678,0.000431,0.004701
9369000,0.0324,0.013523,0.002678,0.000431,0.035023
9370000,0.0324,0.013523,0.002678,0.000431,0.004584
9371000,0.0324,0.013523,0.002678,0.000431,0.004819
9372000,0.0324,0.013523,0.002678,0.000431,0.065346
9373000,0.0324,0.013523,0.002678,0.000431,0.004701
9374000,0.0324,0.013523,0.002678,0.000431,0.004701
9375000,0.0324,0.013523,0.002678,0.000431,0.025034
9376000,0.0324,0.013523,0.002678,0.000431,0.197917
9377000,0.0324,0.013523,0.002678,0.000431,0.008815
9378000,0.0324,0.013523,0.002678,0.000431,0.004701
9379000,0.0324,0.013523,0.002678,0.000431,0.042310
9380000,0.0324,0.013523,0.002678,0.000431,0.004701
9381000,0.0324,0.013523,0.002678,0.000431,0.004701
9382000,0.0324,0.013523,0.002678,0.000431,0.004701
9383000,0.0324,0.013523,0.002678,0.000431,0.012223
9384000,0.0324,0.013523,0.002678,0.000431,0.004701
9385000,0.0324,0.013523,0.002678,0.000431,0.037962
9386000,0.0324,0.013523,0.002678,0.000431,0.099781
9387000,0.0324,0.013523,0.002678,0.000431,0.004701
9388000,0.0324,0.013523,0.002678,0.000431,0.004584
9389000,0.0324,0.013523,0.002678,0.000431,0.026914
