Cycle,Area(mm^2),PeakDynamic(W),SubthresholdLeakage(W),GateLeakage(W),RunTimeDynamic(W)
4000000,0.0324,0.013523,0.002678,0.000431,0.010813
4001000,0.0324,0.013523,0.002678,0.000431,0.010813
4002000,0.0324,0.013523,0.002678,0.000431,0.010695
4003000,0.0324,0.013523,0.002678,0.000431,0.010695
4004000,0.0324,0.013523,0.002678,0.000431,0.010813
4005000,0.0324,0.013523,0.002678,0.000431,0.011048
4006000,0.0324,0.013523,0.002678,0.000431,0.010460
4007000,0.0324,0.013523,0.002678,0.000431,0.011283
4008000,0.0324,0.013523,0.002678,0.000431,0.010460
4009000,0.0324,0.013523,0.002678,0.000431,0.011283
4010000,0.0324,0.013523,0.002678,0.000431,0.010342
4011000,0.0324,0.013523,0.002678,0.000431,0.011048
4012000,0.0324,0.013523,0.002678,0.000431,0.010930
4013000,0.0324,0.013523,0.002678,0.000431,0.010225
4014000,0.0324,0.013523,0.002678,0.000431,0.011048
4015000,0.0324,0.013523,0.002678,0.000431,0.010460
4016000,0.0324,0.013523,0.002678,0.000431,0.010695
4017000,0.0324,0.013523,0.002678,0.000431,0.010695
4018000,0.0324,0.013523,0.002678,0.000431,0.011400
4019000,0.0324,0.013523,0.002678,0.000431,0.010460
4020000,0.0324,0.013523,0.002678,0.000431,0.010460
4021000,0.0324,0.013523,0.002678,0.000431,0.010813
4022000,0.0324,0.013523,0.002678,0.000431,0.010460
4023000,0.0324,0.013523,0.002678,0.000431,0.010930
4024000,0.0324,0.013523,0.002678,0.000431,0.010107
4025000,0.0324,0.013523,0.002678,0.000431,0.010107
4026000,0.0324,0.013523,0.002678,0.000431,0.010695
4027000,0.0324,0.013523,0.002678,0.000431,0.010578
4028000,0.0324,0.013523,0.002678,0.000431,0.010342
4029000,0.0324,0.013523,0.002678,0.000431,0.011165
4030000,0.0324,0.013523,0.002678,0.000431,0.010460
4031000,0.0324,0.013523,0.002678,0.000431,0.010225
4032000,0.0324,0.013523,0.002678,0.000431,0.010930
4033000,0.0324,0.013523,0.002678,0.000431,0.011518
4034000,0.0324,0.013523,0.002678,0.000431,0.010813
4035000,0.0324,0.013523,0.002678,0.000431,0.010930
4036000,0.0324,0.013523,0.002678,0.000431,0.011283
4037000,0.0324,0.013523,0.002678,0.000431,0.010578
4038000,0.0324,0.013523,0.002678,0.000431,0.010813
4039000,0.0324,0.013523,0.002678,0.000431,0.010225
4040000,0.0324,0.013523,0.002678,0.000431,0.011283
4041000,0.0324,0.013523,0.002678,0.000431,0.010107
4042000,0.0324,0.013523,0.002678,0.000431,0.010813
4043000,0.0324,0.013523,0.002678,0.000431,0.010930
4044000,0.0324,0.013523,0.002678,0.000431,0.010813
4045000,0.0324,0.013523,0.002678,0.000431,0.009872
4046000,0.0324,0.013523,0.002678,0.000431,0.010578
4047000,0.0324,0.013523,0.002678,0.000431,0.009637
4048000,0.0324,0.013523,0.002678,0.000431,0.010107
4049000,0.0324,0.013523,0.002678,0.000431,0.010342
4050000,0.0324,0.013523,0.002678,0.000431,0.009402
4051000,0.0324,0.013523,0.002678,0.000431,0.010225
4052000,0.0324,0.013523,0.002678,0.000431,0.009990
4053000,0.0324,0.013523,0.002678,0.000431,0.009872
4054000,0.0324,0.013523,0.002678,0.000431,0.010107
4055000,0.0324,0.013523,0.002678,0.000431,0.009990
4056000,0.0324,0.013523,0.002678,0.000431,0.010460
4057000,0.0324,0.013523,0.002678,0.000431,0.009872
4058000,0.0324,0.013523,0.002678,0.000431,0.010107
4059000,0.0324,0.013523,0.002678,0.000431,0.009872
4060000,0.0324,0.013523,0.002678,0.000431,0.009637
4061000,0.0324,0.013523,0.002678,0.000431,0.009520
4062000,0.0324,0.013523,0.002678,0.000431,0.009402
4063000,0.0324,0.013523,0.002678,0.000431,0.009050
4064000,0.0324,0.013523,0.002678,0.000431,0.008932
4065000,0.0324,0.013523,0.002678,0.000431,0.009755
4066000,0.0324,0.013523,0.002678,0.000431,0.009402
4067000,0.0324,0.013523,0.002678,0.000431,0.009167
4068000,0.0324,0.013523,0.002678,0.000431,0.009167
4069000,0.0324,0.013523,0.002678,0.000431,0.009285
4070000,0.0324,0.013523,0.002678,0.000431,0.009402
4071000,0.0324,0.013523,0.002678,0.000431,0.008697
4072000,0.0324,0.013523,0.002678,0.000431,0.008462
4073000,0.0324,0.013523,0.002678,0.000431,0.008345
4074000,0.0324,0.013523,0.002678,0.000431,0.008580
4075000,0.0324,0.013523,0.002678,0.000431,0.008462
4076000,0.0324,0.013523,0.002678,0.000431,0.008697
4077000,0.0324,0.013523,0.002678,0.000431,0.008580
4078000,0.0324,0.013523,0.002678,0.000431,0.008462
4079000,0.0324,0.013523,0.002678,0.000431,0.008345
4080000,0.0324,0.013523,0.002678,0.000431,0.009050
4081000,0.0324,0.013523,0.002678,0.000431,0.008462
4082000,0.0324,0.013523,0.002678,0.000431,0.008932
4083000,0.0324,0.013523,0.002678,0.000431,0.008580
4084000,0.0324,0.013523,0.002678,0.000431,0.008697
4085000,0.0324,0.013523,0.002678,0.000431,0.008580
4086000,0.0324,0.013523,0.002678,0.000431,0.007757
4087000,0.0324,0.013523,0.002678,0.000431,0.007874
4088000,0.0324,0.013523,0.002678,0.000431,0.007522
4089000,0.0324,0.013523,0.002678,0.000431,0.007639
4090000,0.0324,0.013523,0.002678,0.000431,0.007169
4091000,0.0324,0.013523,0.002678,0.000431,0.008109
4092000,0.0324,0.013523,0.002678,0.000431,0.008109
4093000,0.0324,0.013523,0.002678,0.000431,0.007639
4094000,0.0324,0.013523,0.002678,0.000431,0.008109
4095000,0.0324,0.013523,0.002678,0.000431,0.007639
4096000,0.0324,0.013523,0.002678,0.000431,0.007639
4097000,0.0324,0.013523,0.002678,0.000431,0.008462
4098000,0.0324,0.013523,0.002678,0.000431,0.007757
4099000,0.0324,0.013523,0.002678,0.000431,0.008227
4100000,0.0324,0.013523,0.002678,0.000431,0.007757
4101000,0.0324,0.013523,0.002678,0.000431,0.008462
4102000,0.0324,0.013523,0.002678,0.000431,0.007874
4103000,0.0324,0.013523,0.002678,0.000431,0.008109
4104000,0.0324,0.013523,0.002678,0.000431,0.007992
4105000,0.0324,0.013523,0.002678,0.000431,0.007992
4106000,0.0324,0.013523,0.002678,0.000431,0.008227
4107000,0.0324,0.013523,0.002678,0.000431,0.007639
4108000,0.0324,0.013523,0.002678,0.000431,0.007992
4109000,0.0324,0.013523,0.002678,0.000431,0.007992
4110000,0.0324,0.013523,0.002678,0.000431,0.007287
4111000,0.0324,0.013523,0.002678,0.000431,0.008227
4112000,0.0324,0.013523,0.002678,0.000431,0.007874
4113000,0.0324,0.013523,0.002678,0.000431,0.007992
4114000,0.0324,0.013523,0.002678,0.000431,0.007287
4115000,0.0324,0.013523,0.002678,0.000431,0.007992
4116000,0.0324,0.013523,0.002678,0.000431,0.008345
4117000,0.0324,0.013523,0.002678,0.000431,0.007639
4118000,0.0324,0.013523,0.002678,0.000431,0.008462
4119000,0.0324,0.013523,0.002678,0.000431,0.007639
4120000,0.0324,0.013523,0.002678,0.000431,0.007874
4121000,0.0324,0.013523,0.002678,0.000431,0.008345
4122000,0.0324,0.013523,0.002678,0.000431,0.007874
4123000,0.0324,0.013523,0.002678,0.000431,0.008109
4124000,0.0324,0.013523,0.002678,0.000431,0.008109
4125000,0.0324,0.013523,0.002678,0.000431,0.007992
4126000,0.0324,0.013523,0.002678,0.000431,0.008345
4127000,0.0324,0.013523,0.002678,0.000431,0.007639
4128000,0.0324,0.013523,0.002678,0.000431,0.007992
4129000,0.0324,0.013523,0.002678,0.000431,0.008227
4130000,0.0324,0.013523,0.002678,0.000431,0.008345
4131000,0.0324,0.013523,0.002678,0.000431,0.007874
4132000,0.0324,0.013523,0.002678,0.000431,0.007992
4133000,0.0324,0.013523,0.002678,0.000431,0.007757
4134000,0.0324,0.013523,0.002678,0.000431,0.008227
4135000,0.0324,0.013523,0.002678,0.000431,0.007639
4136000,0.0324,0.013523,0.002678,0.000431,0.008109
4137000,0.0324,0.013523,0.002678,0.000431,0.007992
4138000,0.0324,0.013523,0.002678,0.000431,0.007992
4139000,0.0324,0.013523,0.002678,0.000431,0.008345
4140000,0.0324,0.013523,0.002678,0.000431,0.007757
4141000,0.0324,0.013523,0.002678,0.000431,0.008227
4142000,0.0324,0.013523,0.002678,0.000431,0.007757
4143000,0.0324,0.013523,0.002678,0.000431,0.007992
4144000,0.0324,0.013523,0.002678,0.000431,0.007874
4145000,0.0324,0.013523,0.002678,0.000431,0.008109
4146000,0.0324,0.013523,0.002678,0.000431,0.008227
4147000,0.0324,0.013523,0.002678,0.000431,0.007522
4148000,0.0324,0.013523,0.002678,0.000431,0.007052
4149000,0.0324,0.013523,0.002678,0.000431,0.007639
4150000,0.0324,0.013523,0.002678,0.000431,0.007287
4151000,0.0324,0.013523,0.002678,0.000431,0.007639
4152000,0.0324,0.013523,0.002678,0.000431,0.007287
4153000,0.0324,0.013523,0.002678,0.000431,0.007052
4154000,0.0324,0.013523,0.002678,0.000431,0.007992
4155000,0.0324,0.013523,0.002678,0.000431,0.006817
4156000,0.0324,0.013523,0.002678,0.000431,0.007757
4157000,0.0324,0.013523,0.002678,0.000431,0.007404
4158000,0.0324,0.013523,0.002678,0.000431,0.007052
4159000,0.0324,0.013523,0.002678,0.000431,0.007052
4160000,0.0324,0.013523,0.002678,0.000431,0.007639
4161000,0.0324,0.013523,0.002678,0.000431,0.007522
4162000,0.0324,0.013523,0.002678,0.000431,0.007404
4163000,0.0324,0.013523,0.002678,0.000431,0.006934
4164000,0.0324,0.013523,0.002678,0.000431,0.007287
4165000,0.0324,0.013523,0.002678,0.000431,0.007404
4166000,0.0324,0.013523,0.002678,0.000431,0.007169
4167000,0.0324,0.013523,0.002678,0.000431,0.007522
4168000,0.0324,0.013523,0.002678,0.000431,0.007522
4169000,0.0324,0.013523,0.002678,0.000431,0.007169
4170000,0.0324,0.013523,0.002678,0.000431,0.007874
4171000,0.0324,0.013523,0.002678,0.000431,0.007287
4172000,0.0324,0.013523,0.002678,0.000431,0.007169
4173000,0.0324,0.013523,0.002678,0.000431,0.007169
4174000,0.0324,0.013523,0.002678,0.000431,0.007404
4175000,0.0324,0.013523,0.002678,0.000431,0.007522
4176000,0.0324,0.013523,0.002678,0.000431,0.007052
4177000,0.0324,0.013523,0.002678,0.000431,0.007639
4178000,0.0324,0.013523,0.002678,0.000431,0.007287
4179000,0.0324,0.013523,0.002678,0.000431,0.007404
4180000,0.0324,0.013523,0.002678,0.000431,0.007287
4181000,0.0324,0.013523,0.002678,0.000431,0.007404
4182000,0.0324,0.013523,0.002678,0.000431,0.007522
4183000,0.0324,0.013523,0.002678,0.000431,0.007287
4184000,0.0324,0.013523,0.002678,0.000431,0.006699
4185000,0.0324,0.013523,0.002678,0.000431,0.006464
4186000,0.0324,0.013523,0.002678,0.000431,0.006934
4187000,0.0324,0.013523,0.002678,0.000431,0.006464
4188000,0.0324,0.013523,0.002678,0.000431,0.007052
4189000,0.0324,0.013523,0.002678,0.000431,0.006464
4190000,0.0324,0.013523,0.002678,0.000431,0.006817
4191000,0.0324,0.013523,0.002678,0.000431,0.006582
4192000,0.0324,0.013523,0.002678,0.000431,0.006582
4193000,0.0324,0.013523,0.002678,0.000431,0.006817
4194000,0.0324,0.013523,0.002678,0.000431,0.006699
4195000,0.0324,0.013523,0.002678,0.000431,0.006699
4196000,0.0324,0.013523,0.002678,0.000431,0.006817
4197000,0.0324,0.013523,0.002678,0.000431,0.006582
4198000,0.0324,0.013523,0.002678,0.000431,0.007287
4199000,0.0324,0.013523,0.002678,0.000431,0.006817
4200000,0.0324,0.013523,0.002678,0.000431,0.006582
4201000,0.0324,0.013523,0.002678,0.000431,0.007052
4202000,0.0324,0.013523,0.002678,0.000431,0.007639
4203000,0.0324,0.013523,0.002678,0.000431,0.006229
4204000,0.0324,0.013523,0.002678,0.000431,0.007052
4205000,0.0324,0.013523,0.002678,0.000431,0.006582
4206000,0.0324,0.013523,0.002678,0.000431,0.006582
4207000,0.0324,0.013523,0.002678,0.000431,0.006934
4208000,0.0324,0.013523,0.002678,0.000431,0.006229
4209000,0.0324,0.013523,0.002678,0.000431,0.006934
4210000,0.0324,0.013523,0.002678,0.000431,0.006347
4211000,0.0324,0.013523,0.002678,0.000431,0.007052
4212000,0.0324,0.013523,0.002678,0.000431,0.005994
4213000,0.0324,0.013523,0.002678,0.000431,0.007287
4214000,0.0324,0.013523,0.002678,0.000431,0.006699
4215000,0.0324,0.013523,0.002678,0.000431,0.006582
4216000,0.0324,0.013523,0.002678,0.000431,0.006582
4217000,0.0324,0.013523,0.002678,0.000431,0.006111
4218000,0.0324,0.013523,0.002678,0.000431,0.006699
4219000,0.0324,0.013523,0.002678,0.000431,0.006699
4220000,0.0324,0.013523,0.002678,0.000431,0.006582
4221000,0.0324,0.013523,0.002678,0.000431,0.006934
4222000,0.0324,0.013523,0.002678,0.000431,0.006229
4223000,0.0324,0.013523,0.002678,0.000431,0.006934
4224000,0.0324,0.013523,0.002678,0.000431,0.006582
4225000,0.0324,0.013523,0.002678,0.000431,0.006347
4226000,0.0324,0.013523,0.002678,0.000431,0.006464
4227000,0.0324,0.013523,0.002678,0.000431,0.006229
4228000,0.0324,0.013523,0.002678,0.000431,0.005641
4229000,0.0324,0.013523,0.002678,0.000431,0.006699
4230000,0.0324,0.013523,0.002678,0.000431,0.006111
4231000,0.0324,0.013523,0.002678,0.000431,0.006229
4232000,0.0324,0.013523,0.002678,0.000431,0.005994
4233000,0.0324,0.013523,0.002678,0.000431,0.005994
4234000,0.0324,0.013523,0.002678,0.000431,0.006111
4235000,0.0324,0.013523,0.002678,0.000431,0.006582
4236000,0.0324,0.013523,0.002678,0.000431,0.005641
4237000,0.0324,0.013523,0.002678,0.000431,0.005641
4238000,0.0324,0.013523,0.002678,0.000431,0.006229
4239000,0.0324,0.013523,0.002678,0.000431,0.005994
4240000,0.0324,0.013523,0.002678,0.000431,0.006582
4241000,0.0324,0.013523,0.002678,0.000431,0.005876
4242000,0.0324,0.013523,0.002678,0.000431,0.006229
4243000,0.0324,0.013523,0.002678,0.000431,0.006347
4244000,0.0324,0.013523,0.002678,0.000431,0.005759
4245000,0.0324,0.013523,0.002678,0.000431,0.005641
4246000,0.0324,0.013523,0.002678,0.000431,0.006464
4247000,0.0324,0.013523,0.002678,0.000431,0.006229
4248000,0.0324,0.013523,0.002678,0.000431,0.005994
4249000,0.0324,0.013523,0.002678,0.000431,0.005994
4250000,0.0324,0.013523,0.002678,0.000431,0.005994
4251000,0.0324,0.013523,0.002678,0.000431,0.006111
4252000,0.0324,0.013523,0.002678,0.000431,0.005994
4253000,0.0324,0.013523,0.002678,0.000431,0.006229
4254000,0.0324,0.013523,0.002678,0.000431,0.006347
4255000,0.0324,0.013523,0.002678,0.000431,0.005994
4256000,0.0324,0.013523,0.002678,0.000431,0.006464
4257000,0.0324,0.013523,0.002678,0.000431,0.005994
4258000,0.0324,0.013523,0.002678,0.000431,0.005524
4259000,0.0324,0.013523,0.002678,0.000431,0.005994
4260000,0.0324,0.013523,0.002678,0.000431,0.006111
4261000,0.0324,0.013523,0.002678,0.000431,0.006229
4262000,0.0324,0.013523,0.002678,0.000431,0.005759
4263000,0.0324,0.013523,0.002678,0.000431,0.006229
4264000,0.0324,0.013523,0.002678,0.000431,0.005641
4265000,0.0324,0.013523,0.002678,0.000431,0.005876
4266000,0.0324,0.013523,0.002678,0.000431,0.006464
4267000,0.0324,0.013523,0.002678,0.000431,0.005759
4268000,0.0324,0.013523,0.002678,0.000431,0.005759
4269000,0.0324,0.013523,0.002678,0.000431,0.006111
4270000,0.0324,0.013523,0.002678,0.000431,0.005876
4271000,0.0324,0.013523,0.002678,0.000431,0.005994
4272000,0.0324,0.013523,0.002678,0.000431,0.005876
4273000,0.0324,0.013523,0.002678,0.000431,0.006229
4274000,0.0324,0.013523,0.002678,0.000431,0.005641
4275000,0.0324,0.013523,0.002678,0.000431,0.005994
4276000,0.0324,0.013523,0.002678,0.000431,0.005876
4277000,0.0324,0.013523,0.002678,0.000431,0.006229
4278000,0.0324,0.013523,0.002678,0.000431,0.006464
4279000,0.0324,0.013523,0.002678,0.000431,0.005759
4280000,0.0324,0.013523,0.002678,0.000431,0.005641
4281000,0.0324,0.013523,0.002678,0.000431,0.006111
4282000,0.0324,0.013523,0.002678,0.000431,0.006347
4283000,0.0324,0.013523,0.002678,0.000431,0.005524
4284000,0.0324,0.013523,0.002678,0.000431,0.006464
4285000,0.0324,0.013523,0.002678,0.000431,0.005994
4286000,0.0324,0.013523,0.002678,0.000431,0.005994
4287000,0.0324,0.013523,0.002678,0.000431,0.005994
4288000,0.0324,0.013523,0.002678,0.000431,0.005876
4289000,0.0324,0.013523,0.002678,0.000431,0.006111
4290000,0.0324,0.013523,0.002678,0.000431,0.005759
4291000,0.0324,0.013523,0.002678,0.000431,0.006229
4292000,0.0324,0.013523,0.002678,0.000431,0.005876
4293000,0.0324,0.013523,0.002678,0.000431,0.005994
4294000,0.0324,0.013523,0.002678,0.000431,0.005994
4295000,0.0324,0.013523,0.002678,0.000431,0.005641
4296000,0.0324,0.013523,0.002678,0.000431,0.006347
4297000,0.0324,0.013523,0.002678,0.000431,0.006229
4298000,0.0324,0.013523,0.002678,0.000431,0.005876
4299000,0.0324,0.013523,0.002678,0.000431,0.006229
4300000,0.0324,0.013523,0.002678,0.000431,0.006347
4301000,0.0324,0.013523,0.002678,0.000431,0.006229
4302000,0.0324,0.013523,0.002678,0.000431,0.005524
4303000,0.0324,0.013523,0.002678,0.000431,0.006934
4304000,0.0324,0.013523,0.002678,0.000431,0.005994
4305000,0.0324,0.013523,0.002678,0.000431,0.006111
4306000,0.0324,0.013523,0.002678,0.000431,0.005641
4307000,0.0324,0.013523,0.002678,0.000431,0.005876
4308000,0.0324,0.013523,0.002678,0.000431,0.005876
4309000,0.0324,0.013523,0.002678,0.000431,0.005994
4310000,0.0324,0.013523,0.002678,0.000431,0.006347
4311000,0.0324,0.013523,0.002678,0.000431,0.005641
4312000,0.0324,0.013523,0.002678,0.000431,0.006111
4313000,0.0324,0.013523,0.002678,0.000431,0.006464
4314000,0.0324,0.013523,0.002678,0.000431,0.006229
4315000,0.0324,0.013523,0.002678,0.000431,0.006347
4316000,0.0324,0.013523,0.002678,0.000431,0.005759
4317000,0.0324,0.013523,0.002678,0.000431,0.006111
4318000,0.0324,0.013523,0.002678,0.000431,0.006464
4319000,0.0324,0.013523,0.002678,0.000431,0.006111
4320000,0.0324,0.013523,0.002678,0.000431,0.006111
4321000,0.0324,0.013523,0.002678,0.000431,0.005759
4322000,0.0324,0.013523,0.002678,0.000431,0.006229
4323000,0.0324,0.013523,0.002678,0.000431,0.006111
4324000,0.0324,0.013523,0.002678,0.000431,0.006111
4325000,0.0324,0.013523,0.002678,0.000431,0.006111
4326000,0.0324,0.013523,0.002678,0.000431,0.005994
4327000,0.0324,0.013523,0.002678,0.000431,0.005876
4328000,0.0324,0.013523,0.002678,0.000431,0.006111
4329000,0.0324,0.013523,0.002678,0.000431,0.005994
4330000,0.0324,0.013523,0.002678,0.000431,0.005759
4331000,0.0324,0.013523,0.002678,0.000431,0.005524
4332000,0.0324,0.013523,0.002678,0.000431,0.005524
4333000,0.0324,0.013523,0.002678,0.000431,0.005641
4334000,0.0324,0.013523,0.002678,0.000431,0.004936
4335000,0.0324,0.013523,0.002678,0.000431,0.005641
4336000,0.0324,0.013523,0.002678,0.000431,0.005524
4337000,0.0324,0.013523,0.002678,0.000431,0.005641
4338000,0.0324,0.013523,0.002678,0.000431,0.005054
4339000,0.0324,0.013523,0.002678,0.000431,0.005524
4340000,0.0324,0.013523,0.002678,0.000431,0.005289
4341000,0.0324,0.013523,0.002678,0.000431,0.005406
4342000,0.0324,0.013523,0.002678,0.000431,0.005289
4343000,0.0324,0.013523,0.002678,0.000431,0.005289
4344000,0.0324,0.013523,0.002678,0.000431,0.005524
4345000,0.0324,0.013523,0.002678,0.000431,0.005641
4346000,0.0324,0.013523,0.002678,0.000431,0.005641
4347000,0.0324,0.013523,0.002678,0.000431,0.005524
4348000,0.0324,0.013523,0.002678,0.000431,0.005641
4349000,0.0324,0.013523,0.002678,0.000431,0.005641
4350000,0.0324,0.013523,0.002678,0.000431,0.005524
4351000,0.0324,0.013523,0.002678,0.000431,0.004936
4352000,0.0324,0.013523,0.002678,0.000431,0.005524
4353000,0.0324,0.013523,0.002678,0.000431,0.005406
4354000,0.0324,0.013523,0.002678,0.000431,0.005289
4355000,0.0324,0.013523,0.002678,0.000431,0.005289
4356000,0.0324,0.013523,0.002678,0.000431,0.005524
4357000,0.0324,0.013523,0.002678,0.000431,0.005289
4358000,0.0324,0.013523,0.002678,0.000431,0.005406
4359000,0.0324,0.013523,0.002678,0.000431,0.005171
4360000,0.0324,0.013523,0.002678,0.000431,0.005876
4361000,0.0324,0.013523,0.002678,0.000431,0.005524
4362000,0.0324,0.013523,0.002678,0.000431,0.005641
4363000,0.0324,0.013523,0.002678,0.000431,0.005171
4364000,0.0324,0.013523,0.002678,0.000431,0.005876
4365000,0.0324,0.013523,0.002678,0.000431,0.005524
4366000,0.0324,0.013523,0.002678,0.000431,0.005289
4367000,0.0324,0.013523,0.002678,0.000431,0.005641
4368000,0.0324,0.013523,0.002678,0.000431,0.004936
4369000,0.0324,0.013523,0.002678,0.000431,0.005641
4370000,0.0324,0.013523,0.002678,0.000431,0.005524
4371000,0.0324,0.013523,0.002678,0.000431,0.005641
4372000,0.0324,0.013523,0.002678,0.000431,0.005054
4373000,0.0324,0.013523,0.002678,0.000431,0.005759
4374000,0.0324,0.013523,0.002678,0.000431,0.005406
4375000,0.0324,0.013523,0.002678,0.000431,0.005406
4376000,0.0324,0.013523,0.002678,0.000431,0.005524
4377000,0.0324,0.013523,0.002678,0.000431,0.005289
4378000,0.0324,0.013523,0.002678,0.000431,0.005641
4379000,0.0324,0.013523,0.002678,0.000431,0.005289
4380000,0.0324,0.013523,0.002678,0.000431,0.005171
4381000,0.0324,0.013523,0.002678,0.000431,0.005876
4382000,0.0324,0.013523,0.002678,0.000431,0.005054
4383000,0.0324,0.013523,0.002678,0.000431,0.005406
4384000,0.0324,0.013523,0.002678,0.000431,0.005524
4385000,0.0324,0.013523,0.002678,0.000431,0.005054
4386000,0.0324,0.013523,0.002678,0.000431,0.005759
4387000,0.0324,0.013523,0.002678,0.000431,0.005524
4388000,0.0324,0.013523,0.002678,0.000431,0.005171
4389000,0.0324,0.013523,0.002678,0.000431,0.005171
