Cycle,Area(mm^2),PeakDynamic(W),SubthresholdLeakage(W),GateLeakage(W),RunTimeDynamic(W)
9000000,0.0324,0.013523,0.002678,0.000431,0.023858
9001000,0.0324,0.013523,0.002678,0.000431,0.105423
9002000,0.0324,0.013523,0.002678,0.000431,0.038902
9003000,0.0324,0.013523,0.002678,0.000431,0.008462
9004000,0.0324,0.013523,0.002678,0.000431,0.004584
9005000,0.0324,0.013523,0.002678,0.000431,0.004701
9006000,0.0324,0.013523,0.002678,0.000431,0.004701
9007000,0.0324,0.013523,0.002678,0.000431,0.004701
9008000,0.0324,0.013523,0.002678,0.000431,0.117528
9009000,0.0324,0.013523,0.002678,0.000431,0.012223
9010000,0.0324,0.013523,0.002678,0.000431,0.004584
9011000,0.0324,0.013523,0.002678,0.000431,0.004584
9012000,0.0324,0.013523,0.002678,0.000431,0.004701
9013000,0.0324,0.013523,0.002678,0.000431,0.004701
9014000,0.0324,0.013523,0.002678,0.000431,0.004701
9015000,0.0324,0.013523,0.002678,0.000431,0.030440
9016000,0.0324,0.013523,0.002678,0.000431,0.060762
9017000,0.0324,0.013523,0.002678,0.000431,0.004701
9018000,0.0324,0.013523,0.002678,0.000431,0.004701
9019000,0.0324,0.013523,0.002678,0.000431,0.004701
9020000,0.0324,0.013523,0.002678,0.000431,0.004701
9021000,0.0324,0.013523,0.002678,0.000431,0.037962
9022000,0.0324,0.013523,0.002678,0.000431,0.061937
9023000,0.0324,0.013523,0.002678,0.000431,0.004701
9024000,0.0324,0.013523,0.002678,0.000431,0.004701
9025000,0.0324,0.013523,0.002678,0.000431,0.004701
9026000,0.0324,0.013523,0.002678,0.000431,0.004701
9027000,0.0324,0.013523,0.002678,0.000431,0.004701
9028000,0.0324,0.013523,0.002678,0.000431,0.004936
9029000,0.0324,0.013523,0.002678,0.000431,0.010695
9030000,0.0324,0.013523,0.002678,0.000431,0.006229
9031000,0.0324,0.013523,0.002678,0.000431,0.004466
9032000,0.0324,0.013523,0.002678,0.000431,0.004701
9033000,0.0324,0.013523,0.002678,0.000431,0.004701
9034000,0.0324,0.013523,0.002678,0.000431,0.005876
9035000,0.0324,0.013523,0.002678,0.000431,0.004701
9036000,0.0324,0.013523,0.002678,0.000431,0.027267
9037000,0.0324,0.013523,0.002678,0.000431,0.004701
9038000,0.0324,0.013523,0.002678,0.000431,0.004701
9039000,0.0324,0.013523,0.002678,0.000431,0.004584
9040000,0.0324,0.013523,0.002678,0.000431,0.004584
9041000,0.0324,0.013523,0.002678,0.000431,0.027031
9042000,0.0324,0.013523,0.002678,0.000431,0.049127
9043000,0.0324,0.013523,0.002678,0.000431,0.005289
9044000,0.0324,0.013523,0.002678,0.000431,0.004584
9045000,0.0324,0.013523,0.002678,0.000431,0.005876
9046000,0.0324,0.013523,0.002678,0.000431,0.004701
9047000,0.0324,0.013523,0.002678,0.000431,0.012223
9048000,0.0324,0.013523,0.002678,0.000431,0.004701
9049000,0.0324,0.013523,0.002678,0.000431,0.027267
9050000,0.0324,0.013523,0.002678,0.000431,0.004701
9051000,0.0324,0.013523,0.002678,0.000431,0.004701
9052000,0.0324,0.013523,0.002678,0.000431,0.004701
9053000,0.0324,0.013523,0.002678,0.000431,0.004701
9054000,0.0324,0.013523,0.002678,0.000431,0.019745
9055000,0.0324,0.013523,0.002678,0.000431,0.004701
9056000,0.0324,0.013523,0.002678,0.000431,0.004701
9057000,0.0324,0.013523,0.002678,0.000431,0.004701
9058000,0.0324,0.013523,0.002678,0.000431,0.019745
9059000,0.0324,0.013523,0.002678,0.000431,0.004701
9060000,0.0324,0.013523,0.002678,0.000431,0.004701
9061000,0.0324,0.013523,0.002678,0.000431,0.004701
9062000,0.0324,0.013523,0.002678,0.000431,0.019745
9063000,0.0324,0.013523,0.002678,0.000431,0.004701
9064000,0.0324,0.013523,0.002678,0.000431,0.008462
9065000,0.0324,0.013523,0.002678,0.000431,0.008462
9066000,0.0324,0.013523,0.002678,0.000431,0.007404
9067000,0.0324,0.013523,0.002678,0.000431,0.017512
9068000,0.0324,0.013523,0.002678,0.000431,0.004701
9069000,0.0324,0.013523,0.002678,0.000431,0.004701
9070000,0.0324,0.013523,0.002678,0.000431,0.004701
9071000,0.0324,0.013523,0.002678,0.000431,0.004466
9072000,0.0324,0.013523,0.002678,0.000431,0.004701
9073000,0.0324,0.013523,0.002678,0.000431,0.079214
9074000,0.0324,0.013523,0.002678,0.000431,0.020685
9075000,0.0324,0.013523,0.002678,0.000431,0.034788
9076000,0.0324,0.013523,0.002678,0.000431,0.004701
9077000,0.0324,0.013523,0.002678,0.000431,0.021978
9078000,0.0324,0.013523,0.002678,0.000431,0.070399
9079000,0.0324,0.013523,0.002678,0.000431,0.006817
9080000,0.0324,0.013523,0.002678,0.000431,0.047364
9081000,0.0324,0.013523,0.002678,0.000431,0.004584
9082000,0.0324,0.013523,0.002678,0.000431,0.004701
9083000,0.0324,0.013523,0.002678,0.000431,0.004584
9084000,0.0324,0.013523,0.002678,0.000431,0.027149
9085000,0.0324,0.013523,0.002678,0.000431,0.004701
9086000,0.0324,0.013523,0.002678,0.000431,0.070517
9087000,0.0324,0.013523,0.002678,0.000431,0.029617
9088000,0.0324,0.013523,0.002678,0.000431,0.004701
9089000,0.0324,0.013523,0.002678,0.000431,0.004701
9090000,0.0324,0.013523,0.002678,0.000431,0.004701
9091000,0.0324,0.013523,0.002678,0.000431,0.049832
9092000,0.0324,0.013523,0.002678,0.000431,0.013163
9093000,0.0324,0.013523,0.002678,0.000431,0.027267
9094000,0.0324,0.013523,0.002678,0.000431,0.034788
9095000,0.0324,0.013523,0.002678,0.000431,0.004701
9096000,0.0324,0.013523,0.002678,0.000431,0.004701
9097000,0.0324,0.013523,0.002678,0.000431,0.004819
9098000,0.0324,0.013523,0.002678,0.000431,0.004584
9099000,0.0324,0.013523,0.002678,0.000431,0.004701
9100000,0.0324,0.013523,0.002678,0.000431,0.008462
9101000,0.0324,0.013523,0.002678,0.000431,0.008462
9102000,0.0324,0.013523,0.002678,0.000431,0.004701
9103000,0.0324,0.013523,0.002678,0.000431,0.004701
9104000,0.0324,0.013523,0.002678,0.000431,0.004701
9105000,0.0324,0.013523,0.002678,0.000431,0.004701
9106000,0.0324,0.013523,0.002678,0.000431,0.004701
9107000,0.0324,0.013523,0.002678,0.000431,0.004701
9108000,0.0324,0.013523,0.002678,0.000431,0.004701
9109000,0.0324,0.013523,0.002678,0.000431,0.004701
9110000,0.0324,0.013523,0.002678,0.000431,0.012223
9111000,0.0324,0.013523,0.002678,0.000431,0.042075
9112000,0.0324,0.013523,0.002678,0.000431,0.004701
9113000,0.0324,0.013523,0.002678,0.000431,0.012223
9114000,0.0324,0.013523,0.002678,0.000431,0.004701
9115000,0.0324,0.013523,0.002678,0.000431,0.004701
9116000,0.0324,0.013523,0.002678,0.000431,0.004701
9117000,0.0324,0.013523,0.002678,0.000431,0.004701
9118000,0.0324,0.013523,0.002678,0.000431,0.004701
9119000,0.0324,0.013523,0.002678,0.000431,0.012223
9120000,0.0324,0.013523,0.002678,0.000431,0.057119
9121000,0.0324,0.013523,0.002678,0.000431,0.019510
9122000,0.0324,0.013523,0.002678,0.000431,0.004701
9123000,0.0324,0.013523,0.002678,0.000431,0.027502
9124000,0.0324,0.013523,0.002678,0.000431,0.027267
9125000,0.0324,0.013523,0.002678,0.000431,0.015984
9126000,0.0324,0.013523,0.002678,0.000431,0.008462
9127000,0.0324,0.013523,0.002678,0.000431,0.034788
9128000,0.0324,0.013523,0.002678,0.000431,0.004701
9129000,0.0324,0.013523,0.002678,0.000431,0.008462
9130000,0.0324,0.013523,0.002678,0.000431,0.008462
9131000,0.0324,0.013523,0.002678,0.000431,0.019745
9132000,0.0324,0.013523,0.002678,0.000431,0.004701
9133000,0.0324,0.013523,0.002678,0.000431,0.012223
9134000,0.0324,0.013523,0.002678,0.000431,0.012223
9135000,0.0324,0.013523,0.002678,0.000431,0.004701
9136000,0.0324,0.013523,0.002678,0.000431,0.064876
9137000,0.0324,0.013523,0.002678,0.000431,0.023388
9138000,0.0324,0.013523,0.002678,0.000431,0.015866
9139000,0.0324,0.013523,0.002678,0.000431,0.004701
9140000,0.0324,0.013523,0.002678,0.000431,0.027267
9141000,0.0324,0.013523,0.002678,0.000431,0.004701
9142000,0.0324,0.013523,0.002678,0.000431,0.004701
9143000,0.0324,0.013523,0.002678,0.000431,0.004701
9144000,0.0324,0.013523,0.002678,0.000431,0.004701
9145000,0.0324,0.013523,0.002678,0.000431,0.004701
9146000,0.0324,0.013523,0.002678,0.000431,0.023506
9147000,0.0324,0.013523,0.002678,0.000431,0.008462
9148000,0.0324,0.013523,0.002678,0.000431,0.004701
9149000,0.0324,0.013523,0.002678,0.000431,0.004701
9150000,0.0324,0.013523,0.002678,0.000431,0.004701
9151000,0.0324,0.013523,0.002678,0.000431,0.004466
9152000,0.0324,0.013523,0.002678,0.000431,0.004701
9153000,0.0324,0.013523,0.002678,0.000431,0.019745
9154000,0.0324,0.013523,0.002678,0.000431,0.004701
9155000,0.0324,0.013523,0.002678,0.000431,0.022683
9156000,0.0324,0.013523,0.002678,0.000431,0.016807
9157000,0.0324,0.013523,0.002678,0.000431,0.004701
9158000,0.0324,0.013523,0.002678,0.000431,0.012223
9159000,0.0324,0.013523,0.002678,0.000431,0.004701
9160000,0.0324,0.013523,0.002678,0.000431,0.019392
9161000,0.0324,0.013523,0.002678,0.000431,0.004584
9162000,0.0324,0.013523,0.002678,0.000431,0.004701
9163000,0.0324,0.013523,0.002678,0.000431,0.054651
9164000,0.0324,0.013523,0.002678,0.000431,0.067579
9165000,0.0324,0.013523,0.002678,0.000431,0.004701
9166000,0.0324,0.013523,0.002678,0.000431,0.096256
9167000,0.0324,0.013523,0.002678,0.000431,0.018452
9168000,0.0324,0.013523,0.002678,0.000431,0.004701
9169000,0.0324,0.013523,0.002678,0.000431,0.004701
9170000,0.0324,0.013523,0.002678,0.000431,0.012223
9171000,0.0324,0.013523,0.002678,0.000431,0.004701
9172000,0.0324,0.013523,0.002678,0.000431,0.004701
9173000,0.0324,0.013523,0.002678,0.000431,0.004701
9174000,0.0324,0.013523,0.002678,0.000431,0.004701
9175000,0.0324,0.013523,0.002678,0.000431,0.057354
9176000,0.0324,0.013523,0.002678,0.000431,0.019745
9177000,0.0324,0.013523,0.002678,0.000431,0.050655
9178000,0.0324,0.013523,0.002678,0.000431,0.018687
9179000,0.0324,0.013523,0.002678,0.000431,0.004701
9180000,0.0324,0.013523,0.002678,0.000431,0.004701
9181000,0.0324,0.013523,0.002678,0.000431,0.012223
9182000,0.0324,0.013523,0.002678,0.000431,0.009637
9183000,0.0324,0.013523,0.002678,0.000431,0.032908
9184000,0.0324,0.013523,0.002678,0.000431,0.175352
9185000,0.0324,0.013523,0.002678,0.000431,0.049127
9186000,0.0324,0.013523,0.002678,0.000431,0.004701
9187000,0.0324,0.013523,0.002678,0.000431,0.004701
9188000,0.0324,0.013523,0.002678,0.000431,0.012223
9189000,0.0324,0.013523,0.002678,0.000431,0.004701
9190000,0.0324,0.013523,0.002678,0.000431,0.004701
9191000,0.0324,0.013523,0.002678,0.000431,0.050067
9192000,0.0324,0.013523,0.002678,0.000431,0.011753
9193000,0.0324,0.013523,0.002678,0.000431,0.004701
9194000,0.0324,0.013523,0.002678,0.000431,0.080624
9195000,0.0324,0.013523,0.002678,0.000431,0.026561
9196000,0.0324,0.013523,0.002678,0.000431,0.004701
9197000,0.0324,0.013523,0.002678,0.000431,0.035494
9198000,0.0324,0.013523,0.002678,0.000431,0.011518
9199000,0.0324,0.013523,0.002678,0.000431,0.004466
9200000,0.0324,0.013523,0.002678,0.000431,0.004466
9201000,0.0324,0.013523,0.002678,0.000431,0.042310
9202000,0.0324,0.013523,0.002678,0.000431,0.004701
9203000,0.0324,0.013523,0.002678,0.000431,0.043250
9204000,0.0324,0.013523,0.002678,0.000431,0.048892
9205000,0.0324,0.013523,0.002678,0.000431,0.004701
9206000,0.0324,0.013523,0.002678,0.000431,0.004701
9207000,0.0324,0.013523,0.002678,0.000431,0.004701
9208000,0.0324,0.013523,0.002678,0.000431,0.019745
9209000,0.0324,0.013523,0.002678,0.000431,0.004701
9210000,0.0324,0.013523,0.002678,0.000431,0.027267
9211000,0.0324,0.013523,0.002678,0.000431,0.012223
9212000,0.0324,0.013523,0.002678,0.000431,0.004701
9213000,0.0324,0.013523,0.002678,0.000431,0.004701
9214000,0.0324,0.013523,0.002678,0.000431,0.068166
9215000,0.0324,0.013523,0.002678,0.000431,0.023976
9216000,0.0324,0.013523,0.002678,0.000431,0.005289
9217000,0.0324,0.013523,0.002678,0.000431,0.034201
9218000,0.0324,0.013523,0.002678,0.000431,0.004466
9219000,0.0324,0.013523,0.002678,0.000431,0.004701
9220000,0.0324,0.013523,0.002678,0.000431,0.004701
9221000,0.0324,0.013523,0.002678,0.000431,0.027267
9222000,0.0324,0.013523,0.002678,0.000431,0.004701
9223000,0.0324,0.013523,0.002678,0.000431,0.004701
9224000,0.0324,0.013523,0.002678,0.000431,0.019745
9225000,0.0324,0.013523,0.002678,0.000431,0.046659
9226000,0.0324,0.013523,0.002678,0.000431,0.037962
9227000,0.0324,0.013523,0.002678,0.000431,0.004701
9228000,0.0324,0.013523,0.002678,0.000431,0.019745
9229000,0.0324,0.013523,0.002678,0.000431,0.004701
9230000,0.0324,0.013523,0.002678,0.000431,0.049832
9231000,0.0324,0.013523,0.002678,0.000431,0.016571
9232000,0.0324,0.013523,0.002678,0.000431,0.007639
9233000,0.0324,0.013523,0.002678,0.000431,0.004701
9234000,0.0324,0.013523,0.002678,0.000431,0.004701
9235000,0.0324,0.013523,0.002678,0.000431,0.042310
9236000,0.0324,0.013523,0.002678,0.000431,0.148791
9237000,0.0324,0.013523,0.002678,0.000431,0.011048
9238000,0.0324,0.013523,0.002678,0.000431,0.034788
9239000,0.0324,0.013523,0.002678,0.000431,0.004466
9240000,0.0324,0.013523,0.002678,0.000431,0.004466
9241000,0.0324,0.013523,0.002678,0.000431,0.027267
9242000,0.0324,0.013523,0.002678,0.000431,0.004701
9243000,0.0324,0.013523,0.002678,0.000431,0.012223
9244000,0.0324,0.013523,0.002678,0.000431,0.072397
9245000,0.0324,0.013523,0.002678,0.000431,0.004701
9246000,0.0324,0.013523,0.002678,0.000431,0.004701
9247000,0.0324,0.013523,0.002678,0.000431,0.057354
9248000,0.0324,0.013523,0.002678,0.000431,0.012223
9249000,0.0324,0.013523,0.002678,0.000431,0.004701
9250000,0.0324,0.013523,0.002678,0.000431,0.012223
9251000,0.0324,0.013523,0.002678,0.000431,0.027267
9252000,0.0324,0.013523,0.002678,0.000431,0.004701
9253000,0.0324,0.013523,0.002678,0.000431,0.004701
9254000,0.0324,0.013523,0.002678,0.000431,0.038549
9255000,0.0324,0.013523,0.002678,0.000431,0.015984
9256000,0.0324,0.013523,0.002678,0.000431,0.004701
9257000,0.0324,0.013523,0.002678,0.000431,0.032438
9258000,0.0324,0.013523,0.002678,0.000431,0.036904
9259000,0.0324,0.013523,0.002678,0.000431,0.004701
9260000,0.0324,0.013523,0.002678,0.000431,0.027031
9261000,0.0324,0.013523,0.002678,0.000431,0.027502
9262000,0.0324,0.013523,0.002678,0.000431,0.004701
9263000,0.0324,0.013523,0.002678,0.000431,0.004701
9264000,0.0324,0.013523,0.002678,0.000431,0.049832
9265000,0.0324,0.013523,0.002678,0.000431,0.004701
9266000,0.0324,0.013523,0.002678,0.000431,0.004701
9267000,0.0324,0.013523,0.002678,0.000431,0.004701
9268000,0.0324,0.013523,0.002678,0.000431,0.012223
9269000,0.0324,0.013523,0.002678,0.000431,0.020920
9270000,0.0324,0.013523,0.002678,0.000431,0.033613
9271000,0.0324,0.013523,0.002678,0.000431,0.019510
9272000,0.0324,0.013523,0.002678,0.000431,0.004701
9273000,0.0324,0.013523,0.002678,0.000431,0.004701
9274000,0.0324,0.013523,0.002678,0.000431,0.004701
9275000,0.0324,0.013523,0.002678,0.000431,0.012223
9276000,0.0324,0.013523,0.002678,0.000431,0.004701
9277000,0.0324,0.013523,0.002678,0.000431,0.032085
9278000,0.0324,0.013523,0.002678,0.000431,0.007404
9279000,0.0324,0.013523,0.002678,0.000431,0.004584
9280000,0.0324,0.013523,0.002678,0.000431,0.011870
9281000,0.0324,0.013523,0.002678,0.000431,0.004701
9282000,0.0324,0.013523,0.002678,0.000431,0.034788
9283000,0.0324,0.013523,0.002678,0.000431,0.020685
9284000,0.0324,0.013523,0.002678,0.000431,0.018805
9285000,0.0324,0.013523,0.002678,0.000431,0.004701
9286000,0.0324,0.013523,0.002678,0.000431,0.012223
9287000,0.0324,0.013523,0.002678,0.000431,0.019745
9288000,0.0324,0.013523,0.002678,0.000431,0.012223
9289000,0.0324,0.013523,0.002678,0.000431,0.004701
9290000,0.0324,0.013523,0.002678,0.000431,0.076863
9291000,0.0324,0.013523,0.002678,0.000431,0.060409
9292000,0.0324,0.013523,0.002678,0.000431,0.004701
9293000,0.0324,0.013523,0.002678,0.000431,0.004701
9294000,0.0324,0.013523,0.002678,0.000431,0.004701
9295000,0.0324,0.013523,0.002678,0.000431,0.019745
9296000,0.0324,0.013523,0.002678,0.000431,0.004701
9297000,0.0324,0.013523,0.002678,0.000431,0.004701
9298000,0.0324,0.013523,0.002678,0.000431,0.004466
9299000,0.0324,0.013523,0.002678,0.000431,0.004701
9300000,0.0324,0.013523,0.002678,0.000431,0.049832
9301000,0.0324,0.013523,0.002678,0.000431,0.008462
9302000,0.0324,0.013523,0.002678,0.000431,0.038549
9303000,0.0324,0.013523,0.002678,0.000431,0.004701
9304000,0.0324,0.013523,0.002678,0.000431,0.034788
9305000,0.0324,0.013523,0.002678,0.000431,0.019745
9306000,0.0324,0.013523,0.002678,0.000431,0.004701
9307000,0.0324,0.013523,0.002678,0.000431,0.004701
9308000,0.0324,0.013523,0.002678,0.000431,0.004701
9309000,0.0324,0.013523,0.002678,0.000431,0.004466
9310000,0.0324,0.013523,0.002678,0.000431,0.087441
9311000,0.0324,0.013523,0.002678,0.000431,0.004466
9312000,0.0324,0.013523,0.002678,0.000431,0.004701
9313000,0.0324,0.013523,0.002678,0.000431,0.064876
9314000,0.0324,0.013523,0.002678,0.000431,0.004701
9315000,0.0324,0.013523,0.002678,0.000431,0.049597
9316000,0.0324,0.013523,0.002678,0.000431,0.004701
9317000,0.0324,0.013523,0.002678,0.000431,0.004936
9318000,0.0324,0.013523,0.002678,0.000431,0.004701
9319000,0.0324,0.013523,0.002678,0.000431,0.012223
9320000,0.0324,0.013523,0.002678,0.000431,0.012223
9321000,0.0324,0.013523,0.002678,0.000431,0.012223
9322000,0.0324,0.013523,0.002678,0.000431,0.079919
9323000,0.0324,0.013523,0.002678,0.000431,0.031027
9324000,0.0324,0.013523,0.002678,0.000431,0.008462
9325000,0.0324,0.013523,0.002678,0.000431,0.004701
9326000,0.0324,0.013523,0.002678,0.000431,0.019745
9327000,0.0324,0.013523,0.002678,0.000431,0.004701
9328000,0.0324,0.013523,0.002678,0.000431,0.004701
9329000,0.0324,0.013523,0.002678,0.000431,0.015866
9330000,0.0324,0.013523,0.002678,0.000431,0.068989
9331000,0.0324,0.013523,0.002678,0.000431,0.004701
9332000,0.0324,0.013523,0.002678,0.000431,0.004701
9333000,0.0324,0.013523,0.002678,0.000431,0.012223
9334000,0.0324,0.013523,0.002678,0.000431,0.004701
9335000,0.0324,0.013523,0.002678,0.000431,0.027502
9336000,0.0324,0.013523,0.002678,0.000431,0.042310
9337000,0.0324,0.013523,0.002678,0.000431,0.004701
9338000,0.0324,0.013523,0.002678,0.000431,0.004584
9339000,0.0324,0.013523,0.002678,0.000431,0.019627
9340000,0.0324,0.013523,0.002678,0.000431,0.004701
9341000,0.0324,0.013523,0.002678,0.000431,0.004701
9342000,0.0324,0.013523,0.002678,0.000431,0.004701
9343000,0.0324,0.013523,0.002678,0.000431,0.035023
9344000,0.0324,0.013523,0.002678,0.000431,0.004701
9345000,0.0324,0.013523,0.002678,0.000431,0.008227
9346000,0.0324,0.013523,0.002678,0.000431,0.015984
9347000,0.0324,0.013523,0.002678,0.000431,0.027267
9348000,0.0324,0.013523,0.002678,0.000431,0.004584
9349000,0.0324,0.013523,0.002678,0.000431,0.027384
9350000,0.0324,0.013523,0.002678,0.000431,0.109771
9351000,0.0324,0.013523,0.002678,0.000431,0.004701
9352000,0.0324,0.013523,0.002678,0.000431,0.066756
9353000,0.0324,0.013523,0.002678,0.000431,0.017629
9354000,0.0324,0.013523,0.002678,0.000431,0.004701
9355000,0.0324,0.013523,0.002678,0.000431,0.004701
9356000,0.0324,0.013523,0.002678,0.000431,0.042545
9357000,0.0324,0.013523,0.002678,0.000431,0.004701
9358000,0.0324,0.013523,0.002678,0.000431,0.004701
9359000,0.0324,0.013523,0.002678,0.000431,0.004701
9360000,0.0324,0.013523,0.002678,0.000431,0.004701
9361000,0.0324,0.013523,0.002678,0.000431,0.004701
9362000,0.0324,0.013523,0.002678,0.000431,0.019745
9363000,0.0324,0.013523,0.002678,0.000431,0.004701
9364000,0.0324,0.013523,0.002678,0.000431,0.004701
9365000,0.0324,0.013523,0.002678,0.000431,0.030087
9366000,0.0324,0.013523,0.002678,0.000431,0.009402
9367000,0.0324,0.013523,0.002678,0.000431,0.065111
9368000,0.0324,0.013523,0.002678,0.000431,0.004701
9369000,0.0324,0.013523,0.002678,0.000431,0.140916
9370000,0.0324,0.013523,0.002678,0.000431,0.026209
9371000,0.0324,0.013523,0.002678,0.000431,0.004701
9372000,0.0324,0.013523,0.002678,0.000431,0.034788
9373000,0.0324,0.013523,0.002678,0.000431,0.011635
9374000,0.0324,0.013523,0.002678,0.000431,0.005289
9375000,0.0324,0.013523,0.002678,0.000431,0.004701
9376000,0.0324,0.013523,0.002678,0.000431,0.135392
9377000,0.0324,0.013523,0.002678,0.000431,0.016924
9378000,0.0324,0.013523,0.002678,0.000431,0.007052
9379000,0.0324,0.013523,0.002678,0.000431,0.032438
9380000,0.0324,0.013523,0.002678,0.000431,0.110006
9381000,0.0324,0.013523,0.002678,0.000431,0.019745
9382000,0.0324,0.013523,0.002678,0.000431,0.012105
9383000,0.0324,0.013523,0.002678,0.000431,0.094845
9384000,0.0324,0.013523,0.002678,0.000431,0.004701
9385000,0.0324,0.013523,0.002678,0.000431,0.027267
9386000,0.0324,0.013523,0.002678,0.000431,0.004701
9387000,0.0324,0.013523,0.002678,0.000431,0.019745
9388000,0.0324,0.013523,0.002678,0.000431,0.011988
9389000,0.0324,0.013523,0.002678,0.000431,0.012223
