Cycle,Area(mm^2),PeakDynamic(W),SubthresholdLeakage(W),GateLeakage(W),RunTimeDynamic(W)
3000000,0.0324,0.013523,0.002678,0.000431,0.002468
3001000,0.0324,0.013523,0.002678,0.000431,0.002938
3002000,0.0324,0.013523,0.002678,0.000431,0.002468
3003000,0.0324,0.013523,0.002678,0.000431,0.002468
3004000,0.0324,0.013523,0.002678,0.000431,0.002821
3005000,0.0324,0.013523,0.002678,0.000431,0.002351
3006000,0.0324,0.013523,0.002678,0.000431,0.002586
3007000,0.0324,0.013523,0.002678,0.000431,0.002586
3008000,0.0324,0.013523,0.002678,0.000431,0.002468
3009000,0.0324,0.013523,0.002678,0.000431,0.002116
3010000,0.0324,0.013523,0.002678,0.000431,0.002703
3011000,0.0324,0.013523,0.002678,0.000431,0.002821
3012000,0.0324,0.013523,0.002678,0.000431,0.002116
3013000,0.0324,0.013523,0.002678,0.000431,0.002703
3014000,0.0324,0.013523,0.002678,0.000431,0.002703
3015000,0.0324,0.013523,0.002678,0.000431,0.002703
3016000,0.0324,0.013523,0.002678,0.000431,0.002703
3017000,0.0324,0.013523,0.002678,0.000431,0.002468
3018000,0.0324,0.013523,0.002678,0.000431,0.002586
3019000,0.0324,0.013523,0.002678,0.000431,0.002703
3020000,0.0324,0.013523,0.002678,0.000431,0.002468
3021000,0.0324,0.013523,0.002678,0.000431,0.002821
3022000,0.0324,0.013523,0.002678,0.000431,0.002703
3023000,0.0324,0.013523,0.002678,0.000431,0.002351
3024000,0.0324,0.013523,0.002678,0.000431,0.002586
3025000,0.0324,0.013523,0.002678,0.000431,0.002586
3026000,0.0324,0.013523,0.002678,0.000431,0.002821
3027000,0.0324,0.013523,0.002678,0.000431,0.002586
3028000,0.0324,0.013523,0.002678,0.000431,0.002586
3029000,0.0324,0.013523,0.002678,0.000431,0.002938
3030000,0.0324,0.013523,0.002678,0.000431,0.002351
3031000,0.0324,0.013523,0.002678,0.000431,0.001763
3032000,0.0324,0.013523,0.002678,0.000431,0.001763
3033000,0.0324,0.013523,0.002678,0.000431,0.001998
3034000,0.0324,0.013523,0.002678,0.000431,0.001880
3035000,0.0324,0.013523,0.002678,0.000431,0.001880
3036000,0.0324,0.013523,0.002678,0.000431,0.002233
3037000,0.0324,0.013523,0.002678,0.000431,0.001763
3038000,0.0324,0.013523,0.002678,0.000431,0.002351
3039000,0.0324,0.013523,0.002678,0.000431,0.001998
3040000,0.0324,0.013523,0.002678,0.000431,0.002116
3041000,0.0324,0.013523,0.002678,0.000431,0.002116
3042000,0.0324,0.013523,0.002678,0.000431,0.002116
3043000,0.0324,0.013523,0.002678,0.000431,0.001880
3044000,0.0324,0.013523,0.002678,0.000431,0.001645
3045000,0.0324,0.013523,0.002678,0.000431,0.001763
3046000,0.0324,0.013523,0.002678,0.000431,0.001998
3047000,0.0324,0.013523,0.002678,0.000431,0.002116
3048000,0.0324,0.013523,0.002678,0.000431,0.001998
3049000,0.0324,0.013523,0.002678,0.000431,0.001998
3050000,0.0324,0.013523,0.002678,0.000431,0.001998
3051000,0.0324,0.013523,0.002678,0.000431,0.001763
3052000,0.0324,0.013523,0.002678,0.000431,0.001998
3053000,0.0324,0.013523,0.002678,0.000431,0.001645
3054000,0.0324,0.013523,0.002678,0.000431,0.001880
3055000,0.0324,0.013523,0.002678,0.000431,0.001998
3056000,0.0324,0.013523,0.002678,0.000431,0.002116
3057000,0.0324,0.013523,0.002678,0.000431,0.001763
3058000,0.0324,0.013523,0.002678,0.000431,0.002116
3059000,0.0324,0.013523,0.002678,0.000431,0.001528
3060000,0.0324,0.013523,0.002678,0.000431,0.001998
3061000,0.0324,0.013523,0.002678,0.000431,0.001528
3062000,0.0324,0.013523,0.002678,0.000431,0.002116
3063000,0.0324,0.013523,0.002678,0.000431,0.001880
3064000,0.0324,0.013523,0.002678,0.000431,0.001880
3065000,0.0324,0.013523,0.002678,0.000431,0.001763
3066000,0.0324,0.013523,0.002678,0.000431,0.001645
3067000,0.0324,0.013523,0.002678,0.000431,0.002116
3068000,0.0324,0.013523,0.002678,0.000431,0.001645
3069000,0.0324,0.013523,0.002678,0.000431,0.001880
3070000,0.0324,0.013523,0.002678,0.000431,0.001763
3071000,0.0324,0.013523,0.002678,0.000431,0.001880
3072000,0.0324,0.013523,0.002678,0.000431,0.001998
3073000,0.0324,0.013523,0.002678,0.000431,0.001880
3074000,0.0324,0.013523,0.002678,0.000431,0.001880
3075000,0.0324,0.013523,0.002678,0.000431,0.001880
3076000,0.0324,0.013523,0.002678,0.000431,0.001880
3077000,0.0324,0.013523,0.002678,0.000431,0.001880
3078000,0.0324,0.013523,0.002678,0.000431,0.001763
3079000,0.0324,0.013523,0.002678,0.000431,0.001880
3080000,0.0324,0.013523,0.002678,0.000431,0.002116
3081000,0.0324,0.013523,0.002678,0.000431,0.001880
3082000,0.0324,0.013523,0.002678,0.000431,0.001880
3083000,0.0324,0.013523,0.002678,0.000431,0.001880
3084000,0.0324,0.013523,0.002678,0.000431,0.001880
3085000,0.0324,0.013523,0.002678,0.000431,0.001998
3086000,0.0324,0.013523,0.002678,0.000431,0.001998
3087000,0.0324,0.013523,0.002678,0.000431,0.001998
3088000,0.0324,0.013523,0.002678,0.000431,0.001880
3089000,0.0324,0.013523,0.002678,0.000431,0.001763
3090000,0.0324,0.013523,0.002678,0.000431,0.001880
3091000,0.0324,0.013523,0.002678,0.000431,0.001998
3092000,0.0324,0.013523,0.002678,0.000431,0.001880
3093000,0.0324,0.013523,0.002678,0.000431,0.002116
3094000,0.0324,0.013523,0.002678,0.000431,0.001645
3095000,0.0324,0.013523,0.002678,0.000431,0.002116
3096000,0.0324,0.013523,0.002678,0.000431,0.001763
3097000,0.0324,0.013523,0.002678,0.000431,0.001998
3098000,0.0324,0.013523,0.002678,0.000431,0.001645
3099000,0.0324,0.013523,0.002678,0.000431,0.001998
3100000,0.0324,0.013523,0.002678,0.000431,0.001998
3101000,0.0324,0.013523,0.002678,0.000431,0.002116
3102000,0.0324,0.013523,0.002678,0.000431,0.001880
3103000,0.0324,0.013523,0.002678,0.000431,0.001998
3104000,0.0324,0.013523,0.002678,0.000431,0.001880
3105000,0.0324,0.013523,0.002678,0.000431,0.001880
3106000,0.0324,0.013523,0.002678,0.000431,0.002233
3107000,0.0324,0.013523,0.002678,0.000431,0.001645
3108000,0.0324,0.013523,0.002678,0.000431,0.001998
3109000,0.0324,0.013523,0.002678,0.000431,0.001763
3110000,0.0324,0.013523,0.002678,0.000431,0.002116
3111000,0.0324,0.013523,0.002678,0.000431,0.001528
3112000,0.0324,0.013523,0.002678,0.000431,0.001998
3113000,0.0324,0.013523,0.002678,0.000431,0.001998
3114000,0.0324,0.013523,0.002678,0.000431,0.001880
3115000,0.0324,0.013523,0.002678,0.000431,0.001880
3116000,0.0324,0.013523,0.002678,0.000431,0.001528
3117000,0.0324,0.013523,0.002678,0.000431,0.002233
3118000,0.0324,0.013523,0.002678,0.000431,0.001880
3119000,0.0324,0.013523,0.002678,0.000431,0.001763
3120000,0.0324,0.013523,0.002678,0.000431,0.001645
3121000,0.0324,0.013523,0.002678,0.000431,0.002233
3122000,0.0324,0.013523,0.002678,0.000431,0.001763
3123000,0.0324,0.013523,0.002678,0.000431,0.001763
3124000,0.0324,0.013523,0.002678,0.000431,0.002116
3125000,0.0324,0.013523,0.002678,0.000431,0.001763
3126000,0.0324,0.013523,0.002678,0.000431,0.002116
3127000,0.0324,0.013523,0.002678,0.000431,0.001998
3128000,0.0324,0.013523,0.002678,0.000431,0.002116
3129000,0.0324,0.013523,0.002678,0.000431,0.002116
3130000,0.0324,0.013523,0.002678,0.000431,0.001880
3131000,0.0324,0.013523,0.002678,0.000431,0.001880
3132000,0.0324,0.013523,0.002678,0.000431,0.001763
3133000,0.0324,0.013523,0.002678,0.000431,0.002116
3134000,0.0324,0.013523,0.002678,0.000431,0.001410
3135000,0.0324,0.013523,0.002678,0.000431,0.001763
3136000,0.0324,0.013523,0.002678,0.000431,0.001763
3137000,0.0324,0.013523,0.002678,0.000431,0.001998
3138000,0.0324,0.013523,0.002678,0.000431,0.002116
3139000,0.0324,0.013523,0.002678,0.000431,0.001763
3140000,0.0324,0.013523,0.002678,0.000431,0.001998
3141000,0.0324,0.013523,0.002678,0.000431,0.001763
3142000,0.0324,0.013523,0.002678,0.000431,0.001998
3143000,0.0324,0.013523,0.002678,0.000431,0.001763
3144000,0.0324,0.013523,0.002678,0.000431,0.001763
3145000,0.0324,0.013523,0.002678,0.000431,0.001880
3146000,0.0324,0.013523,0.002678,0.000431,0.001763
3147000,0.0324,0.013523,0.002678,0.000431,0.001998
3148000,0.0324,0.013523,0.002678,0.000431,0.001763
3149000,0.0324,0.013523,0.002678,0.000431,0.001528
3150000,0.0324,0.013523,0.002678,0.000431,0.001880
3151000,0.0324,0.013523,0.002678,0.000431,0.001528
3152000,0.0324,0.013523,0.002678,0.000431,0.001645
3153000,0.0324,0.013523,0.002678,0.000431,0.001880
3154000,0.0324,0.013523,0.002678,0.000431,0.001998
3155000,0.0324,0.013523,0.002678,0.000431,0.001528
3156000,0.0324,0.013523,0.002678,0.000431,0.002116
3157000,0.0324,0.013523,0.002678,0.000431,0.001880
3158000,0.0324,0.013523,0.002678,0.000431,0.001880
3159000,0.0324,0.013523,0.002678,0.000431,0.001998
3160000,0.0324,0.013523,0.002678,0.000431,0.001763
3161000,0.0324,0.013523,0.002678,0.000431,0.002116
3162000,0.0324,0.013523,0.002678,0.000431,0.001880
3163000,0.0324,0.013523,0.002678,0.000431,0.001880
3164000,0.0324,0.013523,0.002678,0.000431,0.001880
3165000,0.0324,0.013523,0.002678,0.000431,0.001880
3166000,0.0324,0.013523,0.002678,0.000431,0.002116
3167000,0.0324,0.013523,0.002678,0.000431,0.001998
3168000,0.0324,0.013523,0.002678,0.000431,0.001880
3169000,0.0324,0.013523,0.002678,0.000431,0.002116
3170000,0.0324,0.013523,0.002678,0.000431,0.001880
3171000,0.0324,0.013523,0.002678,0.000431,0.001763
3172000,0.0324,0.013523,0.002678,0.000431,0.001998
3173000,0.0324,0.013523,0.002678,0.000431,0.001763
3174000,0.0324,0.013523,0.002678,0.000431,0.001763
3175000,0.0324,0.013523,0.002678,0.000431,0.001528
3176000,0.0324,0.013523,0.002678,0.000431,0.001998
3177000,0.0324,0.013523,0.002678,0.000431,0.001645
3178000,0.0324,0.013523,0.002678,0.000431,0.001763
3179000,0.0324,0.013523,0.002678,0.000431,0.001645
3180000,0.0324,0.013523,0.002678,0.000431,0.001998
3181000,0.0324,0.013523,0.002678,0.000431,0.001645
3182000,0.0324,0.013523,0.002678,0.000431,0.001880
3183000,0.0324,0.013523,0.002678,0.000431,0.001528
3184000,0.0324,0.013523,0.002678,0.000431,0.001763
3185000,0.0324,0.013523,0.002678,0.000431,0.001645
3186000,0.0324,0.013523,0.002678,0.000431,0.001763
3187000,0.0324,0.013523,0.002678,0.000431,0.001998
3188000,0.0324,0.013523,0.002678,0.000431,0.001998
3189000,0.0324,0.013523,0.002678,0.000431,0.001880
3190000,0.0324,0.013523,0.002678,0.000431,0.001880
3191000,0.0324,0.013523,0.002678,0.000431,0.002116
3192000,0.0324,0.013523,0.002678,0.000431,0.002116
3193000,0.0324,0.013523,0.002678,0.000431,0.001645
3194000,0.0324,0.013523,0.002678,0.000431,0.001880
3195000,0.0324,0.013523,0.002678,0.000431,0.001880
3196000,0.0324,0.013523,0.002678,0.000431,0.001998
3197000,0.0324,0.013523,0.002678,0.000431,0.001763
3198000,0.0324,0.013523,0.002678,0.000431,0.001645
3199000,0.0324,0.013523,0.002678,0.000431,0.001763
3200000,0.0324,0.013523,0.002678,0.000431,0.001998
3201000,0.0324,0.013523,0.002678,0.000431,0.001763
3202000,0.0324,0.013523,0.002678,0.000431,0.001763
3203000,0.0324,0.013523,0.002678,0.000431,0.001645
3204000,0.0324,0.013523,0.002678,0.000431,0.002233
3205000,0.0324,0.013523,0.002678,0.000431,0.001880
3206000,0.0324,0.013523,0.002678,0.000431,0.001998
3207000,0.0324,0.013523,0.002678,0.000431,0.001880
3208000,0.0324,0.013523,0.002678,0.000431,0.001645
3209000,0.0324,0.013523,0.002678,0.000431,0.002116
3210000,0.0324,0.013523,0.002678,0.000431,0.001763
3211000,0.0324,0.013523,0.002678,0.000431,0.001880
3212000,0.0324,0.013523,0.002678,0.000431,0.001763
3213000,0.0324,0.013523,0.002678,0.000431,0.002351
3214000,0.0324,0.013523,0.002678,0.000431,0.001880
3215000,0.0324,0.013523,0.002678,0.000431,0.001998
3216000,0.0324,0.013523,0.002678,0.000431,0.002116
3217000,0.0324,0.013523,0.002678,0.000431,0.001998
3218000,0.0324,0.013523,0.002678,0.000431,0.001880
3219000,0.0324,0.013523,0.002678,0.000431,0.001763
3220000,0.0324,0.013523,0.002678,0.000431,0.001880
3221000,0.0324,0.013523,0.002678,0.000431,0.002233
3222000,0.0324,0.013523,0.002678,0.000431,0.001645
3223000,0.0324,0.013523,0.002678,0.000431,0.001998
3224000,0.0324,0.013523,0.002678,0.000431,0.002116
3225000,0.0324,0.013523,0.002678,0.000431,0.002116
3226000,0.0324,0.013523,0.002678,0.000431,0.001880
3227000,0.0324,0.013523,0.002678,0.000431,0.001880
3228000,0.0324,0.013523,0.002678,0.000431,0.001880
3229000,0.0324,0.013523,0.002678,0.000431,0.001880
3230000,0.0324,0.013523,0.002678,0.000431,0.001998
3231000,0.0324,0.013523,0.002678,0.000431,0.001880
3232000,0.0324,0.013523,0.002678,0.000431,0.001293
3233000,0.0324,0.013523,0.002678,0.000431,0.001880
3234000,0.0324,0.013523,0.002678,0.000431,0.002116
3235000,0.0324,0.013523,0.002678,0.000431,0.001880
3236000,0.0324,0.013523,0.002678,0.000431,0.001763
3237000,0.0324,0.013523,0.002678,0.000431,0.001528
3238000,0.0324,0.013523,0.002678,0.000431,0.001763
3239000,0.0324,0.013523,0.002678,0.000431,0.001763
3240000,0.0324,0.013523,0.002678,0.000431,0.002116
3241000,0.0324,0.013523,0.002678,0.000431,0.001763
3242000,0.0324,0.013523,0.002678,0.000431,0.001763
3243000,0.0324,0.013523,0.002678,0.000431,0.001528
3244000,0.0324,0.013523,0.002678,0.000431,0.002116
3245000,0.0324,0.013523,0.002678,0.000431,0.001880
3246000,0.0324,0.013523,0.002678,0.000431,0.001645
3247000,0.0324,0.013523,0.002678,0.000431,0.002116
3248000,0.0324,0.013523,0.002678,0.000431,0.001880
3249000,0.0324,0.013523,0.002678,0.000431,0.001763
3250000,0.0324,0.013523,0.002678,0.000431,0.001763
3251000,0.0324,0.013523,0.002678,0.000431,0.001880
3252000,0.0324,0.013523,0.002678,0.000431,0.001763
3253000,0.0324,0.013523,0.002678,0.000431,0.001880
3254000,0.0324,0.013523,0.002678,0.000431,0.001998
3255000,0.0324,0.013523,0.002678,0.000431,0.001998
3256000,0.0324,0.013523,0.002678,0.000431,0.001998
3257000,0.0324,0.013523,0.002678,0.000431,0.001880
3258000,0.0324,0.013523,0.002678,0.000431,0.001998
3259000,0.0324,0.013523,0.002678,0.000431,0.002233
3260000,0.0324,0.013523,0.002678,0.000431,0.001645
3261000,0.0324,0.013523,0.002678,0.000431,0.001998
3262000,0.0324,0.013523,0.002678,0.000431,0.001880
3263000,0.0324,0.013523,0.002678,0.000431,0.002116
3264000,0.0324,0.013523,0.002678,0.000431,0.001763
3265000,0.0324,0.013523,0.002678,0.000431,0.001763
3266000,0.0324,0.013523,0.002678,0.000431,0.001880
3267000,0.0324,0.013523,0.002678,0.000431,0.001998
3268000,0.0324,0.013523,0.002678,0.000431,0.001880
3269000,0.0324,0.013523,0.002678,0.000431,0.001998
3270000,0.0324,0.013523,0.002678,0.000431,0.001880
3271000,0.0324,0.013523,0.002678,0.000431,0.001880
3272000,0.0324,0.013523,0.002678,0.000431,0.001998
3273000,0.0324,0.013523,0.002678,0.000431,0.001763
3274000,0.0324,0.013523,0.002678,0.000431,0.001880
3275000,0.0324,0.013523,0.002678,0.000431,0.001645
3276000,0.0324,0.013523,0.002678,0.000431,0.001880
3277000,0.0324,0.013523,0.002678,0.000431,0.001880
3278000,0.0324,0.013523,0.002678,0.000431,0.001763
3279000,0.0324,0.013523,0.002678,0.000431,0.001763
3280000,0.0324,0.013523,0.002678,0.000431,0.001763
3281000,0.0324,0.013523,0.002678,0.000431,0.001880
3282000,0.0324,0.013523,0.002678,0.000431,0.001998
3283000,0.0324,0.013523,0.002678,0.000431,0.001880
3284000,0.0324,0.013523,0.002678,0.000431,0.001880
3285000,0.0324,0.013523,0.002678,0.000431,0.001998
3286000,0.0324,0.013523,0.002678,0.000431,0.001645
3287000,0.0324,0.013523,0.002678,0.000431,0.001998
3288000,0.0324,0.013523,0.002678,0.000431,0.001998
3289000,0.0324,0.013523,0.002678,0.000431,0.001410
3290000,0.0324,0.013523,0.002678,0.000431,0.001880
3291000,0.0324,0.013523,0.002678,0.000431,0.001998
3292000,0.0324,0.013523,0.002678,0.000431,0.001645
3293000,0.0324,0.013523,0.002678,0.000431,0.001763
3294000,0.0324,0.013523,0.002678,0.000431,0.001763
3295000,0.0324,0.013523,0.002678,0.000431,0.001998
3296000,0.0324,0.013523,0.002678,0.000431,0.002233
3297000,0.0324,0.013523,0.002678,0.000431,0.001528
3298000,0.0324,0.013523,0.002678,0.000431,0.001998
3299000,0.0324,0.013523,0.002678,0.000431,0.001998
3300000,0.0324,0.013523,0.002678,0.000431,0.001645
3301000,0.0324,0.013523,0.002678,0.000431,0.001880
3302000,0.0324,0.013523,0.002678,0.000431,0.001998
3303000,0.0324,0.013523,0.002678,0.000431,0.001763
3304000,0.0324,0.013523,0.002678,0.000431,0.002116
3305000,0.0324,0.013523,0.002678,0.000431,0.001763
3306000,0.0324,0.013523,0.002678,0.000431,0.001880
3307000,0.0324,0.013523,0.002678,0.000431,0.001763
3308000,0.0324,0.013523,0.002678,0.000431,0.001880
3309000,0.0324,0.013523,0.002678,0.000431,0.001645
3310000,0.0324,0.013523,0.002678,0.000431,0.002116
3311000,0.0324,0.013523,0.002678,0.000431,0.001763
3312000,0.0324,0.013523,0.002678,0.000431,0.001998
3313000,0.0324,0.013523,0.002678,0.000431,0.001763
3314000,0.0324,0.013523,0.002678,0.000431,0.001998
3315000,0.0324,0.013523,0.002678,0.000431,0.001998
3316000,0.0324,0.013523,0.002678,0.000431,0.001880
3317000,0.0324,0.013523,0.002678,0.000431,0.001763
3318000,0.0324,0.013523,0.002678,0.000431,0.002233
3319000,0.0324,0.013523,0.002678,0.000431,0.001410
3320000,0.0324,0.013523,0.002678,0.000431,0.001880
3321000,0.0324,0.013523,0.002678,0.000431,0.001763
3322000,0.0324,0.013523,0.002678,0.000431,0.001880
3323000,0.0324,0.013523,0.002678,0.000431,0.002233
3324000,0.0324,0.013523,0.002678,0.000431,0.001998
3325000,0.0324,0.013523,0.002678,0.000431,0.001763
3326000,0.0324,0.013523,0.002678,0.000431,0.001880
3327000,0.0324,0.013523,0.002678,0.000431,0.001528
3328000,0.0324,0.013523,0.002678,0.000431,0.002233
3329000,0.0324,0.013523,0.002678,0.000431,0.001998
3330000,0.0324,0.013523,0.002678,0.000431,0.001645
3331000,0.0324,0.013523,0.002678,0.000431,0.001880
3332000,0.0324,0.013523,0.002678,0.000431,0.001998
3333000,0.0324,0.013523,0.002678,0.000431,0.001880
3334000,0.0324,0.013523,0.002678,0.000431,0.001998
3335000,0.0324,0.013523,0.002678,0.000431,0.002116
3336000,0.0324,0.013523,0.002678,0.000431,0.001880
3337000,0.0324,0.013523,0.002678,0.000431,0.001998
3338000,0.0324,0.013523,0.002678,0.000431,0.002116
3339000,0.0324,0.013523,0.002678,0.000431,0.001880
3340000,0.0324,0.013523,0.002678,0.000431,0.002233
3341000,0.0324,0.013523,0.002678,0.000431,0.001998
3342000,0.0324,0.013523,0.002678,0.000431,0.001528
3343000,0.0324,0.013523,0.002678,0.000431,0.001763
3344000,0.0324,0.013523,0.002678,0.000431,0.001998
3345000,0.0324,0.013523,0.002678,0.000431,0.001880
3346000,0.0324,0.013523,0.002678,0.000431,0.001763
3347000,0.0324,0.013523,0.002678,0.000431,0.001998
3348000,0.0324,0.013523,0.002678,0.000431,0.001645
3349000,0.0324,0.013523,0.002678,0.000431,0.001880
3350000,0.0324,0.013523,0.002678,0.000431,0.001763
3351000,0.0324,0.013523,0.002678,0.000431,0.002233
3352000,0.0324,0.013523,0.002678,0.000431,0.001763
3353000,0.0324,0.013523,0.002678,0.000431,0.001998
3354000,0.0324,0.013523,0.002678,0.000431,0.001645
3355000,0.0324,0.013523,0.002678,0.000431,0.002116
3356000,0.0324,0.013523,0.002678,0.000431,0.001880
3357000,0.0324,0.013523,0.002678,0.000431,0.001880
3358000,0.0324,0.013523,0.002678,0.000431,0.001998
3359000,0.0324,0.013523,0.002678,0.000431,0.001998
3360000,0.0324,0.013523,0.002678,0.000431,0.001763
3361000,0.0324,0.013523,0.002678,0.000431,0.001880
3362000,0.0324,0.013523,0.002678,0.000431,0.002233
3363000,0.0324,0.013523,0.002678,0.000431,0.001645
3364000,0.0324,0.013523,0.002678,0.000431,0.001880
3365000,0.0324,0.013523,0.002678,0.000431,0.001528
3366000,0.0324,0.013523,0.002678,0.000431,0.001880
3367000,0.0324,0.013523,0.002678,0.000431,0.002233
3368000,0.0324,0.013523,0.002678,0.000431,0.001880
3369000,0.0324,0.013523,0.002678,0.000431,0.001880
3370000,0.0324,0.013523,0.002678,0.000431,0.001763
3371000,0.0324,0.013523,0.002678,0.000431,0.001645
3372000,0.0324,0.013523,0.002678,0.000431,0.001645
3373000,0.0324,0.013523,0.002678,0.000431,0.001293
3374000,0.0324,0.013523,0.002678,0.000431,0.001293
3375000,0.0324,0.013523,0.002678,0.000431,0.001410
3376000,0.0324,0.013523,0.002678,0.000431,0.001528
3377000,0.0324,0.013523,0.002678,0.000431,0.001175
3378000,0.0324,0.013523,0.002678,0.000431,0.001410
3379000,0.0324,0.013523,0.002678,0.000431,0.001175
3380000,0.0324,0.013523,0.002678,0.000431,0.001410
3381000,0.0324,0.013523,0.002678,0.000431,0.001645
3382000,0.0324,0.013523,0.002678,0.000431,0.001175
3383000,0.0324,0.013523,0.002678,0.000431,0.001175
3384000,0.0324,0.013523,0.002678,0.000431,0.001293
3385000,0.0324,0.013523,0.002678,0.000431,0.001293
3386000,0.0324,0.013523,0.002678,0.000431,0.001410
3387000,0.0324,0.013523,0.002678,0.000431,0.001293
3388000,0.0324,0.013523,0.002678,0.000431,0.001410
3389000,0.0324,0.013523,0.002678,0.000431,0.001293
