Cycle,Area(mm^2),PeakDynamic(W),SubthresholdLeakage(W),GateLeakage(W),RunTimeDynamic(W)
100,0.0324,0.013523,0.002678,0.000431,0.000000
200,0.0324,0.013523,0.002678,0.000431,0.000000
300,0.0324,0.013523,0.002678,0.000431,0.000000
400,0.0324,0.013523,0.002678,0.000431,0.000000
500,0.0324,0.013523,0.002678,0.000431,0.000000
600,0.0324,0.013523,0.002678,0.000431,0.000000
700,0.0324,0.013523,0.002678,0.000431,0.000000
800,0.0324,0.013523,0.002678,0.000431,0.000000
900,0.0324,0.013523,0.002678,0.000431,0.000000
1000,0.0324,0.013523,0.002678,0.000431,0.000000
1100,0.0324,0.013523,0.002678,0.000431,0.000000
1200,0.0324,0.013523,0.002678,0.000431,0.000000
1300,0.0324,0.013523,0.002678,0.000431,0.000000
1400,0.0324,0.013523,0.002678,0.000431,0.000000
1500,0.0324,0.013523,0.002678,0.000431,0.000000
1600,0.0324,0.013523,0.002678,0.000431,0.000000
1700,0.0324,0.013523,0.002678,0.000431,0.000000
1800,0.0324,0.013523,0.002678,0.000431,0.000000
1900,0.0324,0.013523,0.002678,0.000431,0.000000
2000,0.0324,0.013523,0.002678,0.000431,0.000000
2100,0.0324,0.013523,0.002678,0.000431,0.000000
2200,0.0324,0.013523,0.002678,0.000431,0.000000
2300,0.0324,0.013523,0.002678,0.000431,0.000000
2400,0.0324,0.013523,0.002678,0.000431,0.000000
2500,0.0324,0.013523,0.002678,0.000431,0.000000
2600,0.0324,0.013523,0.002678,0.000431,0.000000
2700,0.0324,0.013523,0.002678,0.000431,0.000000
2800,0.0324,0.013523,0.002678,0.000431,0.000000
2900,0.0324,0.013523,0.002678,0.000431,0.000000
3000,0.0324,0.013523,0.002678,0.000431,0.000000
3100,0.0324,0.013523,0.002678,0.000431,0.000000
3200,0.0324,0.013523,0.002678,0.000431,0.000000
3300,0.0324,0.013523,0.002678,0.000431,0.000000
3400,0.0324,0.013523,0.002678,0.000431,0.000000
3500,0.0324,0.013523,0.002678,0.000431,0.000000
3600,0.0324,0.013523,0.002678,0.000431,0.000000
3700,0.0324,0.013523,0.002678,0.000431,0.000000
3800,0.0324,0.013523,0.002678,0.000431,0.000000
3900,0.0324,0.013523,0.002678,0.000431,0.000000
4000,0.0324,0.013523,0.002678,0.000431,0.000000
4100,0.0324,0.013523,0.002678,0.000431,0.000000
4200,0.0324,0.013523,0.002678,0.000431,0.000000
4300,0.0324,0.013523,0.002678,0.000431,0.000000
4400,0.0324,0.013523,0.002678,0.000431,0.000000
4500,0.0324,0.013523,0.002678,0.000431,0.000000
4600,0.0324,0.013523,0.002678,0.000431,0.000000
4700,0.0324,0.013523,0.002678,0.000431,0.000000
4800,0.0324,0.013523,0.002678,0.000431,0.000000
4900,0.0324,0.013523,0.002678,0.000431,0.000000
5000,0.0324,0.013523,0.002678,0.000431,0.000000
5100,0.0324,0.013523,0.002678,0.000431,0.000000
5200,0.0324,0.013523,0.002678,0.000431,0.012928
5300,0.0324,0.013523,0.002678,0.000431,0.022330
5400,0.0324,0.013523,0.002678,0.000431,0.012928
5500,0.0324,0.013523,0.002678,0.000431,0.588816
5600,0.0324,0.013523,0.002678,0.000431,1.600734
5700,0.0324,0.013523,0.002678,0.000431,1.246974
5800,0.0324,0.013523,0.002678,0.000431,2.362316
5900,0.0324,0.013523,0.002678,0.000431,4.622383
6000,0.0324,0.013523,0.002678,0.000431,3.413018
6100,0.0324,0.013523,0.002678,0.000431,2.777191
6200,0.0324,0.013523,0.002678,0.000431,3.472958
6300,0.0324,0.013523,0.002678,0.000431,4.189880
6400,0.0324,0.013523,0.002678,0.000431,4.310934
6500,0.0324,0.013523,0.002678,0.000431,4.332089
6600,0.0324,0.013523,0.002678,0.000431,4.389678
6700,0.0324,0.013523,0.002678,0.000431,4.207509
6800,0.0324,0.013523,0.002678,0.000431,4.184003
6900,0.0324,0.013523,0.002678,0.000431,3.873729
7000,0.0324,0.013523,0.002678,0.000431,3.773830
7100,0.0324,0.013523,0.002678,0.000431,4.068826
7200,0.0324,0.013523,0.002678,0.000431,4.719932
7300,0.0324,0.013523,0.002678,0.000431,4.031217
7400,0.0324,0.013523,0.002678,0.000431,4.419060
7500,0.0324,0.013523,0.002678,0.000431,4.889172
7600,0.0324,0.013523,0.002678,0.000431,4.638837
7700,0.0324,0.013523,0.002678,0.000431,4.563619
7800,0.0324,0.013523,0.002678,0.000431,4.359120
7900,0.0324,0.013523,0.002678,0.000431,3.678632
8000,0.0324,0.013523,0.002678,0.000431,3.636322
8100,0.0324,0.013523,0.002678,0.000431,3.568156
8200,0.0324,0.013523,0.002678,0.000431,3.522320
8300,0.0324,0.013523,0.002678,0.000431,3.511742
8400,0.0324,0.013523,0.002678,0.000431,3.519969
8500,0.0324,0.013523,0.002678,0.000431,3.119198
8600,0.0324,0.013523,0.002678,0.000431,3.021650
8700,0.0324,0.013523,0.002678,0.000431,2.664364
8800,0.0324,0.013523,0.002678,0.000431,2.759562
8900,0.0324,0.013523,0.002678,0.000431,2.492773
9000,0.0324,0.013523,0.002678,0.000431,1.977999
9100,0.0324,0.013523,0.002678,0.000431,1.961545
9200,0.0324,0.013523,0.002678,0.000431,1.719437
9300,0.0324,0.013523,0.002678,0.000431,1.771150
9400,0.0324,0.013523,0.002678,0.000431,1.927462
9500,0.0324,0.013523,0.002678,0.000431,1.248149
9600,0.0324,0.013523,0.002678,0.000431,1.310439
9700,0.0324,0.013523,0.002678,0.000431,1.463226
9800,0.0324,0.013523,0.002678,0.000431,1.141199
9900,0.0324,0.013523,0.002678,0.000431,1.034248
10000,0.0324,0.013523,0.002678,0.000431,1.288109
10100,0.0324,0.013523,0.002678,0.000431,0.860306
10200,0.0324,0.013523,0.002678,0.000431,1.027196
10300,0.0324,0.013523,0.002678,0.000431,0.920246
10400,0.0324,0.013523,0.002678,0.000431,0.819171
10500,0.0324,0.013523,0.002678,0.000431,0.927297
10600,0.0324,0.013523,0.002678,0.000431,0.802717
10700,0.0324,0.013523,0.002678,0.000431,0.817996
10800,0.0324,0.013523,0.002678,0.000431,0.783913
10900,0.0324,0.013523,0.002678,0.000431,0.713396
11000,0.0324,0.013523,0.002678,0.000431,0.660508
11100,0.0324,0.013523,0.002678,0.000431,0.714571
11200,0.0324,0.013523,0.002678,0.000431,0.606445
11300,0.0324,0.013523,0.002678,0.000431,0.617023
11400,0.0324,0.013523,0.002678,0.000431,0.607621
11500,0.0324,0.013523,0.002678,0.000431,0.517124
11600,0.0324,0.013523,0.002678,0.000431,0.571187
11700,0.0324,0.013523,0.002678,0.000431,0.567661
11800,0.0324,0.013523,0.002678,0.000431,0.454834
11900,0.0324,0.013523,0.002678,0.000431,0.508897
12000,0.0324,0.013523,0.002678,0.000431,0.461886
12100,0.0324,0.013523,0.002678,0.000431,0.410173
12200,0.0324,0.013523,0.002678,0.000431,0.475989
12300,0.0324,0.013523,0.002678,0.000431,0.363162
12400,0.0324,0.013523,0.002678,0.000431,0.394895
12500,0.0324,0.013523,0.002678,0.000431,0.350234
12600,0.0324,0.013523,0.002678,0.000431,0.320852
12700,0.0324,0.013523,0.002678,0.000431,0.359636
12800,0.0324,0.013523,0.002678,0.000431,0.267964
12900,0.0324,0.013523,0.002678,0.000431,0.310274
13000,0.0324,0.013523,0.002678,0.000431,0.292645
13100,0.0324,0.013523,0.002678,0.000431,0.257387
13200,0.0324,0.013523,0.002678,0.000431,0.271490
13300,0.0324,0.013523,0.002678,0.000431,0.250335
13400,0.0324,0.013523,0.002678,0.000431,0.206850
13500,0.0324,0.013523,0.002678,0.000431,0.225654
13600,0.0324,0.013523,0.002678,0.000431,0.188045
13700,0.0324,0.013523,0.002678,0.000431,0.183344
13800,0.0324,0.013523,0.002678,0.000431,0.163364
13900,0.0324,0.013523,0.002678,0.000431,0.151611
14000,0.0324,0.013523,0.002678,0.000431,0.145735
14100,0.0324,0.013523,0.002678,0.000431,0.119879
14200,0.0324,0.013523,0.002678,0.000431,0.122229
14300,0.0324,0.013523,0.002678,0.000431,0.097548
14400,0.0324,0.013523,0.002678,0.000431,0.103425
14500,0.0324,0.013523,0.002678,0.000431,0.088146
14600,0.0324,0.013523,0.002678,0.000431,0.084620
14700,0.0324,0.013523,0.002678,0.000431,0.089321
14800,0.0324,0.013523,0.002678,0.000431,0.068166
14900,0.0324,0.013523,0.002678,0.000431,0.071692
15000,0.0324,0.013523,0.002678,0.000431,0.065816
15100,0.0324,0.013523,0.002678,0.000431,0.058764
15200,0.0324,0.013523,0.002678,0.000431,0.054063
15300,0.0324,0.013523,0.002678,0.000431,0.061115
15400,0.0324,0.013523,0.002678,0.000431,0.048187
15500,0.0324,0.013523,0.002678,0.000431,0.048187
15600,0.0324,0.013523,0.002678,0.000431,0.058764
15700,0.0324,0.013523,0.002678,0.000431,0.036434
15800,0.0324,0.013523,0.002678,0.000431,0.054063
15900,0.0324,0.013523,0.002678,0.000431,0.041135
16000,0.0324,0.013523,0.002678,0.000431,0.039960
16100,0.0324,0.013523,0.002678,0.000431,0.037609
16200,0.0324,0.013523,0.002678,0.000431,0.039960
16300,0.0324,0.013523,0.002678,0.000431,0.034083
16400,0.0324,0.013523,0.002678,0.000431,0.030557
16500,0.0324,0.013523,0.002678,0.000431,0.038784
16600,0.0324,0.013523,0.002678,0.000431,0.029382
16700,0.0324,0.013523,0.002678,0.000431,0.031733
16800,0.0324,0.013523,0.002678,0.000431,0.028207
16900,0.0324,0.013523,0.002678,0.000431,0.024681
17000,0.0324,0.013523,0.002678,0.000431,0.025856
17100,0.0324,0.013523,0.002678,0.000431,0.028207
17200,0.0324,0.013523,0.002678,0.000431,0.015279
17300,0.0324,0.013523,0.002678,0.000431,0.022330
17400,0.0324,0.013523,0.002678,0.000431,0.022330
17500,0.0324,0.013523,0.002678,0.000431,0.017629
17600,0.0324,0.013523,0.002678,0.000431,0.019980
17700,0.0324,0.013523,0.002678,0.000431,0.022330
17800,0.0324,0.013523,0.002678,0.000431,0.017629
17900,0.0324,0.013523,0.002678,0.000431,0.016454
18000,0.0324,0.013523,0.002678,0.000431,0.022330
18100,0.0324,0.013523,0.002678,0.000431,0.016454
18200,0.0324,0.013523,0.002678,0.000431,0.012928
18300,0.0324,0.013523,0.002678,0.000431,0.021155
18400,0.0324,0.013523,0.002678,0.000431,0.018805
18500,0.0324,0.013523,0.002678,0.000431,0.014103
18600,0.0324,0.013523,0.002678,0.000431,0.015279
18700,0.0324,0.013523,0.002678,0.000431,0.018805
18800,0.0324,0.013523,0.002678,0.000431,0.010578
18900,0.0324,0.013523,0.002678,0.000431,0.014103
19000,0.0324,0.013523,0.002678,0.000431,0.017629
19100,0.0324,0.013523,0.002678,0.000431,0.010578
19200,0.0324,0.013523,0.002678,0.000431,0.010578
19300,0.0324,0.013523,0.002678,0.000431,0.014103
19400,0.0324,0.013523,0.002678,0.000431,0.011753
19500,0.0324,0.013523,0.002678,0.000431,0.011753
19600,0.0324,0.013523,0.002678,0.000431,0.014103
19700,0.0324,0.013523,0.002678,0.000431,0.010578
19800,0.0324,0.013523,0.002678,0.000431,0.010578
19900,0.0324,0.013523,0.002678,0.000431,0.010578
20000,0.0324,0.013523,0.002678,0.000431,0.009402
20100,0.0324,0.013523,0.002678,0.000431,0.008227
20200,0.0324,0.013523,0.002678,0.000431,0.010578
20300,0.0324,0.013523,0.002678,0.000431,0.007052
20400,0.0324,0.013523,0.002678,0.000431,0.010578
20500,0.0324,0.013523,0.002678,0.000431,0.008227
20600,0.0324,0.013523,0.002678,0.000431,0.009402
20700,0.0324,0.013523,0.002678,0.000431,0.010578
20800,0.0324,0.013523,0.002678,0.000431,0.007052
20900,0.0324,0.013523,0.002678,0.000431,0.011753
21000,0.0324,0.013523,0.002678,0.000431,0.009402
21100,0.0324,0.013523,0.002678,0.000431,0.007052
21200,0.0324,0.013523,0.002678,0.000431,0.009402
21300,0.0324,0.013523,0.002678,0.000431,0.009402
21400,0.0324,0.013523,0.002678,0.000431,0.005876
21500,0.0324,0.013523,0.002678,0.000431,0.007052
21600,0.0324,0.013523,0.002678,0.000431,0.009402
21700,0.0324,0.013523,0.002678,0.000431,0.004701
21800,0.0324,0.013523,0.002678,0.000431,0.005876
21900,0.0324,0.013523,0.002678,0.000431,0.012928
22000,0.0324,0.013523,0.002678,0.000431,0.000000
22100,0.0324,0.013523,0.002678,0.000431,0.009402
22200,0.0324,0.013523,0.002678,0.000431,0.008227
22300,0.0324,0.013523,0.002678,0.000431,0.004701
22400,0.0324,0.013523,0.002678,0.000431,0.009402
22500,0.0324,0.013523,0.002678,0.000431,0.008227
22600,0.0324,0.013523,0.002678,0.000431,0.004701
22700,0.0324,0.013523,0.002678,0.000431,0.009402
22800,0.0324,0.013523,0.002678,0.000431,0.008227
22900,0.0324,0.013523,0.002678,0.000431,0.005876
23000,0.0324,0.013523,0.002678,0.000431,0.008227
23100,0.0324,0.013523,0.002678,0.000431,0.008227
23200,0.0324,0.013523,0.002678,0.000431,0.005876
23300,0.0324,0.013523,0.002678,0.000431,0.005876
23400,0.0324,0.013523,0.002678,0.000431,0.007052
23500,0.0324,0.013523,0.002678,0.000431,0.002351
23600,0.0324,0.013523,0.002678,0.000431,0.003526
23700,0.0324,0.013523,0.002678,0.000431,0.008227
23800,0.0324,0.013523,0.002678,0.000431,0.002351
23900,0.0324,0.013523,0.002678,0.000431,0.002351
24000,0.0324,0.013523,0.002678,0.000431,0.005876
24100,0.0324,0.013523,0.002678,0.000431,0.005876
24200,0.0324,0.013523,0.002678,0.000431,0.002351
24300,0.0324,0.013523,0.002678,0.000431,0.005876
24400,0.0324,0.013523,0.002678,0.000431,0.005876
24500,0.0324,0.013523,0.002678,0.000431,0.002351
24600,0.0324,0.013523,0.002678,0.000431,0.005876
24700,0.0324,0.013523,0.002678,0.000431,0.002351
24800,0.0324,0.013523,0.002678,0.000431,0.004701
24900,0.0324,0.013523,0.002678,0.000431,0.003526
25000,0.0324,0.013523,0.002678,0.000431,0.003526
25100,0.0324,0.013523,0.002678,0.000431,0.003526
25200,0.0324,0.013523,0.002678,0.000431,0.002351
25300,0.0324,0.013523,0.002678,0.000431,0.004701
25400,0.0324,0.013523,0.002678,0.000431,0.001175
25500,0.0324,0.013523,0.002678,0.000431,0.004701
25600,0.0324,0.013523,0.002678,0.000431,0.003526
25700,0.0324,0.013523,0.002678,0.000431,0.002351
25800,0.0324,0.013523,0.002678,0.000431,0.007052
25900,0.0324,0.013523,0.002678,0.000431,0.002351
26000,0.0324,0.013523,0.002678,0.000431,0.002351
26100,0.0324,0.013523,0.002678,0.000431,0.005876
26200,0.0324,0.013523,0.002678,0.000431,0.003526
26300,0.0324,0.013523,0.002678,0.000431,0.000000
26400,0.0324,0.013523,0.002678,0.000431,0.004701
26500,0.0324,0.013523,0.002678,0.000431,0.004701
26600,0.0324,0.013523,0.002678,0.000431,0.002351
26700,0.0324,0.013523,0.002678,0.000431,0.003526
26800,0.0324,0.013523,0.002678,0.000431,0.004701
26900,0.0324,0.013523,0.002678,0.000431,0.002351
27000,0.0324,0.013523,0.002678,0.000431,0.004701
27100,0.0324,0.013523,0.002678,0.000431,0.003526
27200,0.0324,0.013523,0.002678,0.000431,0.004701
27300,0.0324,0.013523,0.002678,0.000431,0.002351
27400,0.0324,0.013523,0.002678,0.000431,0.003526
27500,0.0324,0.013523,0.002678,0.000431,0.003526
27600,0.0324,0.013523,0.002678,0.000431,0.002351
27700,0.0324,0.013523,0.002678,0.000431,0.003526
27800,0.0324,0.013523,0.002678,0.000431,0.002351
27900,0.0324,0.013523,0.002678,0.000431,0.003526
28000,0.0324,0.013523,0.002678,0.000431,0.002351
28100,0.0324,0.013523,0.002678,0.000431,0.003526
28200,0.0324,0.013523,0.002678,0.000431,0.003526
28300,0.0324,0.013523,0.002678,0.000431,0.002351
28400,0.0324,0.013523,0.002678,0.000431,0.002351
28500,0.0324,0.013523,0.002678,0.000431,0.004701
28600,0.0324,0.013523,0.002678,0.000431,0.002351
28700,0.0324,0.013523,0.002678,0.000431,0.002351
28800,0.0324,0.013523,0.002678,0.000431,0.004701
28900,0.0324,0.013523,0.002678,0.000431,0.002351
29000,0.0324,0.013523,0.002678,0.000431,0.003526
29100,0.0324,0.013523,0.002678,0.000431,0.001175
29200,0.0324,0.013523,0.002678,0.000431,0.002351
29300,0.0324,0.013523,0.002678,0.000431,0.005876
29400,0.0324,0.013523,0.002678,0.000431,0.001175
29500,0.0324,0.013523,0.002678,0.000431,0.003526
29600,0.0324,0.013523,0.002678,0.000431,0.003526
29700,0.0324,0.013523,0.002678,0.000431,0.002351
29800,0.0324,0.013523,0.002678,0.000431,0.003526
29900,0.0324,0.013523,0.002678,0.000431,0.003526
30000,0.0324,0.013523,0.002678,0.000431,0.002351
30100,0.0324,0.013523,0.002678,0.000431,0.003526
30200,0.0324,0.013523,0.002678,0.000431,0.003526
30300,0.0324,0.013523,0.002678,0.000431,0.002351
30400,0.0324,0.013523,0.002678,0.000431,0.003526
30500,0.0324,0.013523,0.002678,0.000431,0.002351
30600,0.0324,0.013523,0.002678,0.000431,0.003526
30700,0.0324,0.013523,0.002678,0.000431,0.002351
30800,0.0324,0.013523,0.002678,0.000431,0.003526
30900,0.0324,0.013523,0.002678,0.000431,0.003526
31000,0.0324,0.013523,0.002678,0.000431,0.002351
31100,0.0324,0.013523,0.002678,0.000431,0.002351
31200,0.0324,0.013523,0.002678,0.000431,0.002351
31300,0.0324,0.013523,0.002678,0.000431,0.003526
31400,0.0324,0.013523,0.002678,0.000431,0.003526
31500,0.0324,0.013523,0.002678,0.000431,0.002351
31600,0.0324,0.013523,0.002678,0.000431,0.002351
31700,0.0324,0.013523,0.002678,0.000431,0.003526
31800,0.0324,0.013523,0.002678,0.000431,0.002351
31900,0.0324,0.013523,0.002678,0.000431,0.003526
32000,0.0324,0.013523,0.002678,0.000431,0.002351
32100,0.0324,0.013523,0.002678,0.000431,0.003526
32200,0.0324,0.013523,0.002678,0.000431,0.003526
32300,0.0324,0.013523,0.002678,0.000431,0.002351
32400,0.0324,0.013523,0.002678,0.000431,0.003526
32500,0.0324,0.013523,0.002678,0.000431,0.003526
32600,0.0324,0.013523,0.002678,0.000431,0.001175
32700,0.0324,0.013523,0.002678,0.000431,0.004701
32800,0.0324,0.013523,0.002678,0.000431,0.002351
32900,0.0324,0.013523,0.002678,0.000431,0.002351
33000,0.0324,0.013523,0.002678,0.000431,0.004701
33100,0.0324,0.013523,0.002678,0.000431,0.001175
33200,0.0324,0.013523,0.002678,0.000431,0.003526
33300,0.0324,0.013523,0.002678,0.000431,0.003526
33400,0.0324,0.013523,0.002678,0.000431,0.002351
33500,0.0324,0.013523,0.002678,0.000431,0.003526
33600,0.0324,0.013523,0.002678,0.000431,0.003526
33700,0.0324,0.013523,0.002678,0.000431,0.002351
33800,0.0324,0.013523,0.002678,0.000431,0.002351
33900,0.0324,0.013523,0.002678,0.000431,0.002351
34000,0.0324,0.013523,0.002678,0.000431,0.003526
34100,0.0324,0.013523,0.002678,0.000431,0.002351
34200,0.0324,0.013523,0.002678,0.000431,0.004701
34300,0.0324,0.013523,0.002678,0.000431,0.002351
34400,0.0324,0.013523,0.002678,0.000431,0.002351
34500,0.0324,0.013523,0.002678,0.000431,0.004701
34600,0.0324,0.013523,0.002678,0.000431,0.001175
34700,0.0324,0.013523,0.002678,0.000431,0.002351
34800,0.0324,0.013523,0.002678,0.000431,0.003526
34900,0.0324,0.013523,0.002678,0.000431,0.003526
35000,0.0324,0.013523,0.002678,0.000431,0.002351
35100,0.0324,0.013523,0.002678,0.000431,0.003526
35200,0.0324,0.013523,0.002678,0.000431,0.003526
35300,0.0324,0.013523,0.002678,0.000431,0.002351
35400,0.0324,0.013523,0.002678,0.000431,0.003526
35500,0.0324,0.013523,0.002678,0.000431,0.003526
35600,0.0324,0.013523,0.002678,0.000431,0.002351
35700,0.0324,0.013523,0.002678,0.000431,0.003526
35800,0.0324,0.013523,0.002678,0.000431,0.001175
35900,0.0324,0.013523,0.002678,0.000431,0.004701
36000,0.0324,0.013523,0.002678,0.000431,0.001175
36100,0.0324,0.013523,0.002678,0.000431,0.004701
36200,0.0324,0.013523,0.002678,0.000431,0.003526
36300,0.0324,0.013523,0.002678,0.000431,0.001175
36400,0.0324,0.013523,0.002678,0.000431,0.004701
36500,0.0324,0.013523,0.002678,0.000431,0.003526
36600,0.0324,0.013523,0.002678,0.000431,0.001175
36700,0.0324,0.013523,0.002678,0.000431,0.003526
36800,0.0324,0.013523,0.002678,0.000431,0.003526
36900,0.0324,0.013523,0.002678,0.000431,0.002351
37000,0.0324,0.013523,0.002678,0.000431,0.004701
37100,0.0324,0.013523,0.002678,0.000431,0.003526
37200,0.0324,0.013523,0.002678,0.000431,0.001175
37300,0.0324,0.013523,0.002678,0.000431,0.003526
37400,0.0324,0.013523,0.002678,0.000431,0.003526
37500,0.0324,0.013523,0.002678,0.000431,0.002351
37600,0.0324,0.013523,0.002678,0.000431,0.002351
37700,0.0324,0.013523,0.002678,0.000431,0.004701
37800,0.0324,0.013523,0.002678,0.000431,0.002351
37900,0.0324,0.013523,0.002678,0.000431,0.002351
38000,0.0324,0.013523,0.002678,0.000431,0.004701
38100,0.0324,0.013523,0.002678,0.000431,0.001175
38200,0.0324,0.013523,0.002678,0.000431,0.002351
38300,0.0324,0.013523,0.002678,0.000431,0.003526
38400,0.0324,0.013523,0.002678,0.000431,0.002351
38500,0.0324,0.013523,0.002678,0.000431,0.002351
38600,0.0324,0.013523,0.002678,0.000431,0.004701
38700,0.0324,0.013523,0.002678,0.000431,0.002351
38800,0.0324,0.013523,0.002678,0.000431,0.002351
38900,0.0324,0.013523,0.002678,0.000431,0.004701
39000,0.0324,0.013523,0.002678,0.000431,0.002351
39100,0.0324,0.013523,0.002678,0.000431,0.002351
39200,0.0324,0.013523,0.002678,0.000431,0.004701
39300,0.0324,0.013523,0.002678,0.000431,0.002351
39400,0.0324,0.013523,0.002678,0.000431,0.001175
39500,0.0324,0.013523,0.002678,0.000431,0.004701
39600,0.0324,0.013523,0.002678,0.000431,0.003526
39700,0.0324,0.013523,0.002678,0.000431,0.001175
39800,0.0324,0.013523,0.002678,0.000431,0.004701
39900,0.0324,0.013523,0.002678,0.000431,0.002351
40000,0.0324,0.013523,0.002678,0.000431,0.001175
40100,0.0324,0.013523,0.002678,0.000431,0.003526
40200,0.0324,0.013523,0.002678,0.000431,0.003526
40300,0.0324,0.013523,0.002678,0.000431,0.002351
40400,0.0324,0.013523,0.002678,0.000431,0.002351
40500,0.0324,0.013523,0.002678,0.000431,0.004701
40600,0.0324,0.013523,0.002678,0.000431,0.002351
40700,0.0324,0.013523,0.002678,0.000431,0.002351
40800,0.0324,0.013523,0.002678,0.000431,0.004701
